wavenumber,transmittance
4000.0,0.0018249645125757827
3996.0,0.0025999808613833358
3992.0,0.0021666440593322146
3988.01,0.0009130235221387472
3984.01,-0.00031348584797825127
3980.01,-0.0011007847784502355
3976.01,-0.0014220893443042154
3972.02,-0.0011703953919778986
3968.02,-0.0004278756649951328
3964.02,0.00010301722112113451
3960.02,-0.00018524156378482058
3956.03,-0.0009023610019053656
3952.03,-0.0011111209270377104
3948.03,-0.0006014226684069008
3944.03,-9.836628049335765e-05
3940.04,-6.824920467141282e-05
3936.04,-0.00020790878967395557
3932.04,-0.00016746701811858088
3928.04,-5.433031726962747e-05
3924.05,6.015071812647746e-05
3920.05,0.0003936313642009951
3916.05,0.0007554413263550765
3912.05,0.0003754268899303382
3908.05,-0.0010703211230976312
3904.06,-0.0027052333753966036
3900.06,-0.0030310851098886323
3896.06,-0.001836156201903264
3892.06,-0.00026224341054256766
3888.07,0.0008418894712637191
3884.07,0.0011176497305071269
3880.07,0.00040779955354503953
3876.07,-0.001036285739872377
3872.08,-0.0024200686335426273
3868.08,-0.002822798310232634
3864.08,-0.0022153088547323748
3860.08,-0.0011817738169582
3856.09,0.00010729127391125492
3852.09,0.0014077457778409515
3848.09,0.0018067338037190419
3844.09,0.0010000924988511322
3840.1,3.8711797538332e-05
3836.1,0.00031713662998483636
3832.1,0.0015592495968732368
3828.1,0.0022155132758955474
3824.11,0.002107775939225877
3820.11,0.002407876495404957
3816.11,0.003318389824825631
3812.11,0.0031832646474215616
3808.11,0.000988559866933311
3804.12,-0.0021574899546592695
3800.12,-0.003660891878267287
3796.12,-0.0026568706422791027
3792.12,-0.0008686384716163532
3788.13,0.00041107570523137097
3784.13,0.0007405152026795443
3780.13,-0.000292822028692386
3776.13,-0.0026666059569457144
3772.14,-0.005186722418433524
3768.14,-0.006188313544868514
3764.14,-0.005595412102050127
3760.14,-0.004994517877473395
3756.15,-0.005196363855274267
3752.15,-0.005072870874930635
3748.15,-0.0030795153771477173
3744.15,1.11996507919847e-05
3740.16,0.002023117160527785
3736.16,0.002213024021613618
3732.16,0.0010782702342954382
3728.16,-0.0005577572263662816
3724.16,-0.0018313681654955848
3720.17,-0.0020054680505038123
3716.17,-0.0008877578335438599
3712.17,0.0004953566574663671
3708.17,0.000641281044400067
3704.18,-0.0005527616077341312
3700.18,-0.0017575455968156116
3696.18,-0.0018023665429859911
3692.18,-0.0005052355280493752
3688.19,0.0012644274291287532
3684.19,0.0025902864832043552
3680.19,0.0034483354459068855
3676.19,0.0038713101945861035
3672.2,0.003106102217493148
3668.2,0.0007103930480724207
3664.2,-0.0019697855137964944
3660.2,-0.0032562264695132565
3656.21,-0.00229131633686603
3652.21,0.00046878811214875554
3648.21,0.0026541142363027694
3644.21,0.002682144740398051
3640.21,0.0016239665602652597
3636.22,0.0008389889502658528
3632.22,0.0010654135066492734
3628.22,0.0027646054439705325
3624.22,0.005602999327720713
3620.23,0.00817545203954994
3616.23,0.008879980598280445
3612.23,0.007115724134584917
3608.23,0.0038419257859948716
3604.24,0.0006892385750515252
3600.24,-0.0014637215230613792
3596.24,-0.002471464186350309
3592.24,-0.00225941127521872
3588.25,-0.0013426864168404628
3584.25,-0.0007070696920111928
3580.25,-0.00044892138354584365
3576.25,0.00027616535226503933
3572.26,0.0018479886292763002
3568.26,0.0034280224389000545
3564.26,0.003988269866665094
3560.26,0.0036364585495991166
3556.26,0.0028580786188109
3552.27,0.0014436963581385173
3548.27,-0.000500978876555569
3544.27,-0.0015282348480616032
3540.27,-0.00037421292140874093
3536.28,0.0019346916270659253
3532.28,0.003117169424794117
3528.28,0.0022398057737622263
3524.28,0.0006003307480155628
3520.29,-0.0001322751846937747
3516.29,0.00032383407668034914
3512.29,0.0013645062478537787
3508.29,0.0024005020277733866
3504.3,0.002636691089032223
3500.3,0.0011681491235305858
3496.3,-0.0016950267689664412
3492.3,-0.0041152156057737655
3488.31,-0.00443449551639121
3484.31,-0.002827957617513961
3480.31,-0.000920991990913892
3476.31,0.00010963722452724243
3472.32,0.0005138112483327194
3468.32,0.0011991666117137855
3464.32,0.0025715001911493407
3460.32,0.003945916751478347
3456.32,0.004065996410576403
3452.33,0.0023637088965568283
3448.33,-0.00018153891730469753
3444.33,-0.0017794800257515486
3440.33,-0.001808048903206846
3436.34,-0.0013379205342114496
3432.34,-0.001362852060499382
3428.34,-0.0014049625272091124
3424.34,-0.0005424052406339615
3420.35,0.0008513304020116458
3416.35,0.0014972490633539351
3412.35,0.0010717414046052267
3408.35,0.0005451791805535529
3404.36,0.0005898963550803467
3400.36,0.0007047029749132421
3396.36,0.0002324999199319902
3392.36,-0.0005887476436963639
3388.37,-0.0011162772277365314
3384.37,-0.001229366043634961
3380.37,-0.0012726429787836703
3376.37,-0.0014315356753210175
3372.37,-0.001726528933045524
3368.38,-0.0020935706094017247
3364.38,-0.0020891445423252045
3360.38,-0.0011306314970879416
3356.38,0.0006268985908704918
3352.39,0.002097924644582698
3348.39,0.002324562585465566
3344.39,0.001398181697737475
3340.39,6.51629363170474e-05
3336.4,-0.0010666086560702003
3332.4,-0.0015111506592616836
3328.4,-0.0008629954813597271
3324.4,0.0006055627119791517
3320.41,0.0017524472817966096
3316.41,0.0017776230427876986
3312.41,0.0013193965254978096
3308.41,0.0014766762168803398
3304.42,0.002136006549116863
3300.42,0.0022228220713666966
3296.42,0.001466900241155399
3292.42,0.0007237155281000739
3288.42,0.0004678200802000822
3284.43,4.759342074873061e-05
3280.43,-0.0009535520742295272
3276.43,-0.0016887189152630234
3272.43,-0.0013370300425806902
3268.44,-0.0005194003193016781
3264.44,-0.00042516604187370843
3260.44,-0.0011407354758304633
3256.44,-0.001802759096928724
3252.45,-0.0020356900790395615
3248.45,-0.002292127342597365
3244.45,-0.0027822897194821963
3240.45,-0.003020461250877842
3236.46,-0.002626006590797297
3232.46,-0.0017220090454934205
3228.46,-0.0005284471160818823
3224.46,0.0007232918298274544
3220.47,0.0015718897151104788
3216.47,0.001600330391120138
3212.47,0.0010733250698254733
3208.47,0.000697787138150178
3204.47,0.0006360747093804864
3200.48,0.0004199454881025225
3196.48,-6.240421240910347e-05
3192.48,-0.00017293995504038198
3188.48,0.0005853233526481169
3184.49,0.001827951404161575
3180.49,0.0027789565514056173
3176.49,0.0030025463005074467
3172.49,0.002418188037631769
3168.5,0.0011149415725119369
3164.5,-0.000477743625754846
3160.5,-0.0015943702225797403
3156.5,-0.0018684689937161498
3152.51,-0.0017663469990193239
3148.51,-0.0018494261955015114
3144.51,-0.0019184367336468034
3140.51,-0.0013559304593613651
3136.52,-0.0001751375503053723
3132.52,0.000887603876169848
3128.52,0.0012759563868689227
3124.52,0.0011031651219548858
3120.53,0.0007664357447503746
3116.53,0.00048810679683514553
3112.53,0.0003626295151897118
3108.53,0.0005042422290590547
3104.53,0.0008938039702412501
3100.54,0.001294376254117986
3096.54,0.0015352185945580416
3092.54,0.0017178426125718702
3088.54,0.0019647341073216317
3084.55,0.0020526860828807485
3080.55,0.0015843689881338734
3076.55,0.0005814809454975584
3072.55,-0.0003405709427970382
3068.56,-0.0005365306376958503
3064.56,-2.73014903045892e-05
3060.56,0.000473306675298081
3056.56,0.0003265606054411502
3052.57,-0.000337817509045813
3048.57,-0.0008457744816334021
3044.57,-0.0008159895829124111
3040.57,-0.0005026132405338662
3036.58,-0.00024263149362569733
3032.58,3.0286478012424112e-05
3028.58,0.00046329413072502965
3024.58,0.0008038771880510088
3020.58,0.0006567816015855522
3016.59,0.00016358520979123977
3012.59,1.6688179535170127e-05
3008.59,0.0006304629554991393
3004.59,0.001612058885866412
3000.6,0.002217895818001604
2996.6,0.0020971842868897387
2992.6,0.0014558974685074022
2988.6,0.0006826881046263287
2984.61,0.0001098225844242186
2980.61,-2.2750902096080985e-05
2976.61,0.0002658935776794767
2972.61,0.0005681292535561861
2968.62,0.0003963207186704083
2964.62,-0.00023828580805790116
2960.62,-0.0007046376408510657
2956.62,-0.0004046159092997471
2952.63,0.0005410347381314166
2948.63,0.0014051815331663975
2944.63,0.001622116581670397
2940.63,0.0012877846630973777
2936.63,0.0008942470186847294
2932.64,0.0006838381972454541
2928.64,0.000413335190280422
2924.64,-0.00015518665365354072
2920.64,-0.0007261421636357037
2916.65,-0.000694432850732699
2912.65,5.546590958508403e-05
2908.65,0.0009413898591354153
2904.65,0.0012672492145577691
2900.66,0.0008015392980041274
2896.66,-8.55946802390479e-05
2892.66,-0.0008089860441077909
2888.66,-0.0010475905367710134
2884.67,-0.0009202843433264658
2880.67,-0.000757410799169585
2876.67,-0.0006912484886731309
2872.67,-0.0005576173489697176
2868.68,-0.00024836104836267747
2864.68,1.1430683473352332e-05
2860.68,-5.7590247831345706e-05
2856.68,-0.00032623841992806526
2852.68,-0.00037350886983812486
2848.69,-0.00011739455903638124
2844.69,6.517744807758746e-05
2840.69,-4.4252720749844873e-05
2836.69,-0.00019132783583427588
2832.7,-8.855044535899993e-05
2828.7,0.00016585418866170174
2824.7,0.00032334493160567106
2820.7,0.00042432969741760504
2816.71,0.0006905250289790494
2812.71,0.001080994376881693
2808.71,0.0012883662765430471
2804.71,0.0011397762150456888
2800.72,0.0007451112310623047
2796.72,0.00026119386939399934
2792.72,-0.00018880349042861506
2788.72,-0.0003769358227898518
2784.73,-0.00010331425766764333
2780.73,0.0004378199226406399
2776.73,0.0007249162325412519
2772.73,0.000510055109410716
2768.74,0.00013315463339160104
2764.74,3.820918420383662e-05
2760.74,0.00018181361956439525
2756.74,0.00016793733997096135
2752.74,-0.00015638708616358825
2748.75,-0.000527695962842489
2744.75,-0.0006345703590230695
2740.75,-0.0004455818374299229
2736.75,-0.0001791135357910118
2732.76,-6.68746878331663e-05
2728.76,-0.0001865707173559303
2724.76,-0.0004244876978126258
2720.76,-0.0005719480144785504
2716.77,-0.0005051371113049856
2712.77,-0.0002662090821688325
2708.77,2.7306046946542075e-05
2704.77,0.00029498210197080913
2700.78,0.0004482983481354413
2696.78,0.000357375046460249
2692.78,1.757906245730875e-05
2688.78,-0.0003246187404732645
2684.79,-0.000371418531398364
2680.79,-8.451997057326192e-05
2676.79,0.00030767759595537686
2672.79,0.0005808610591010619
2668.79,0.000689951178433504
2664.8,0.0007113788184196044
2660.8,0.0007434256835545854
2656.8,0.0008315531442521317
2652.8,0.0008700991446632059
2648.81,0.0006244906532153182
2644.81,4.87631017111373e-05
2640.81,-0.00045084124640453523
2636.81,-0.0004111074657123555
2632.82,-3.0243208721353743e-05
2628.82,-4.6655426036137446e-05
2624.82,-0.0006783904987595278
2620.82,-0.0011919300598271204
2616.83,-0.0009739166749803776
2612.83,-0.0005207751326670276
2608.83,-0.0006805887585952233
2604.83,-0.0012499159806052503
2600.84,-0.0012386286774022576
2596.84,-0.0004632520991434815
2592.84,5.104203109607582e-05
2588.84,-0.00045155635335060256
2584.84,-0.0016237747459337162
2580.85,-0.002645992585531442
2576.85,-0.0029213340225527637
2572.85,-0.002085992497882283
2568.85,-0.0001920113935673541
2564.86,0.0018350667410659473
2560.86,0.0027143492244624066
2556.86,0.0021941283975093263
2552.86,0.0011074785076158333
2548.87,7.917027760158347e-05
2544.87,-0.0009864719466859708
2540.87,-0.002090089674271141
2536.87,-0.0028330715056808092
2532.88,-0.0031340980208723456
2528.88,-0.003402064054032755
2524.88,-0.0036887526990305487
2520.88,-0.0034333684097770695
2516.89,-0.0025649156175088744
2512.89,-0.0021071056523986917
2508.89,-0.0026380648625378253
2504.89,-0.0031096643981528265
2500.89,-0.0021292642113318475
2496.9,-6.692211011252684e-05
2492.9,0.001581435775016688
2488.9,0.0021504421859380183
2484.9,0.0022908674336152026
2480.91,0.002648243403693214
2476.91,0.0026550908723029574
2472.91,0.0013097055705479858
2468.91,-0.0011401295649911716
2464.92,-0.0031223533997833514
2460.92,-0.0038127534295792783
2456.92,-0.00386771477313748
2452.92,-0.004290704314868245
2448.93,-0.004978439447942045
2444.93,-0.004581268550229461
2440.93,-0.0022512395137703808
2436.93,0.0010643049216372256
2432.94,0.0035044636689363796
2428.94,0.003856991033489373
2424.94,0.001898624186928505
2420.94,-0.0012606866909327483
2416.95,-0.003438245817751115
2412.95,-0.003239581312773533
2408.95,-0.001457163021288213
2404.95,-0.0003484251604674955
2400.95,-0.0008810950260789995
2396.96,-0.0017283338465660168
2392.96,-0.001581913685308678
2388.96,-0.0009529024433621506
2384.96,-0.000972704128614714
2380.97,-0.001532375028938958
2376.97,-0.0015794422270650392
2372.97,-0.0008434225027006832
2368.97,-0.00027747091667009566
2364.98,-0.00029208225516047954
2360.98,7.282553606648351e-06
2356.98,0.000963181358076519
2352.98,0.001537833116992116
2348.99,0.0010171511951495714
2344.99,-0.00023608703428500144
2340.99,-0.0012024432562183567
2336.99,-0.0011355101013568207
2333.0,-0.0003348904579162813
2329.0,0.0003886370154001233
2325.0,0.0004804287185462208
2321.0,-0.00017052897663735403
2317.0,-0.0012286173158657105
2313.01,-0.0022511006736159345
2309.01,-0.003388663588948093
2305.01,-0.005273646363537688
2301.01,-0.007629878685827126
2297.02,-0.008841506757105337
2293.02,-0.007636549636415862
2289.02,-0.004615511943833397
2285.02,-0.0013310091144850143
2281.03,0.0011162719557573147
2277.03,0.0014673621439798767
2273.03,-0.0022116502263778617
2269.03,-0.00896427336985575
2265.04,-0.011896774948165078
2261.04,-0.007111645246833986
2257.04,-0.0008274777367179172
2253.04,-0.0010629533774524148
2249.05,-0.008177398707325497
2245.05,-0.011448617099981743
2241.05,-0.004803001982308448
2237.05,0.004111329685422175
2233.05,0.005889438314251057
2229.06,-0.00039793555891968823
2225.06,-0.005732001106013155
2221.06,-0.006268772617540089
2217.06,-0.0021202398575958163
2213.07,0.0025735732527026748
2209.07,0.0021674775518308385
2205.07,-0.004531877544250886
2201.07,-0.013885434835908171
2197.08,-0.018264018335892824
2193.08,-0.016577427857771346
2189.08,-0.015568725360892259
2185.08,-0.010854540884520548
2181.09,0.007054345931312873
2177.09,0.030343610019596155
2173.09,0.037831203727881325
2169.09,0.01938223525354405
2165.1,-0.004619586967384763
2161.1,-0.010582208569065846
2157.1,-0.001428530693130651
2153.1,0.010016689739588278
2149.11,0.01391671214165434
2145.11,0.008887191727506773
2141.11,-0.001695258709536704
2137.11,-0.01604882148225326
2133.11,-0.025973543316719087
2129.12,-0.02487340593910225
2125.12,-0.018803004749750944
2121.12,-0.012631364196687143
2117.12,-0.0083168819223809
2113.13,-0.00660400768796961
2109.13,-0.006763015035393232
2105.13,-0.005976322507591263
2101.13,-0.0018235666346596436
2097.14,0.003269242832195108
2093.14,0.005739260005388449
2089.14,0.003308388605232896
2085.14,-0.0031066914167721836
2081.15,-0.0077270805878979585
2077.15,-0.009060895168257756
2073.15,-0.010560767592764711
2069.15,-0.013900157619982817
2065.16,-0.01280670351341385
2061.16,-0.008417382780203542
2057.16,-0.004895769373908756
2053.16,-0.005421611028279567
2049.16,-0.008840805791836097
2045.17,-0.005587578328460959
2041.17,0.0005378297200116363
2037.17,-0.010602110824850288
2033.17,-0.022574821648692952
2029.18,-0.019989509543243713
2025.18,0.008969668027716978
2021.18,0.0317203863318579
2017.18,0.02927032361561021
2013.19,0.012616135540782891
2009.19,-0.009717743678169053
2005.19,-0.01921185869261747
2001.19,-0.013308609676228739
1997.2,-0.008212627335417116
1993.2,0.0006931378838185958
1989.2,0.011798780458093832
1985.2,0.01727592402609538
1981.21,0.012661163220609986
1977.21,-0.0027228913049642707
1973.21,-0.0030267193019523327
1969.21,0.009292620011568463
1965.21,0.015070640568490593
1961.22,0.014367191452314208
1957.22,0.016548144794220124
1953.22,0.021098765210329527
1949.22,0.02233093379828061
1945.23,0.0179624428476774
1941.23,0.008514870286803504
1937.23,0.0025411290181747985
1933.23,-0.0013786480771694055
1929.24,-0.00497284020759971
1925.24,-0.00546860668137553
1921.24,-0.003128822948754429
1917.24,0.00016720598037356043
1913.25,0.0030793782531693763
1909.25,0.003989176457805894
1905.25,0.0037806073428279284
1901.25,0.0034082099953467605
1897.26,0.002523119017456265
1893.26,0.0013077097687866446
1889.26,0.00046828156465872665
1885.26,0.0002771735191411626
1881.26,0.0009724978669094486
1877.27,0.002518675972005583
1873.27,0.004244367516412846
1869.27,0.005241198525149479
1865.27,0.004554148182676047
1861.28,0.002339358236136149
1857.28,-0.00019310844946976026
1853.28,-0.0021167364437062394
1849.28,-0.0025009631756946356
1845.29,-0.0011847435396807459
1841.29,0.0003777693046106785
1837.29,0.0009920765347443939
1833.29,0.0006214023785918691
1829.3,-3.372152605057433e-05
1825.3,-0.0004596699376297829
1821.3,-0.0006882414761879395
1817.3,-0.0006821309451552035
1813.31,-0.00020503999905023592
1809.31,0.0006654206471819086
1805.31,0.0014540047902572583
1801.31,0.0016490145445684822
1797.32,0.0011610318133188913
1793.32,0.0004554834481637607
1789.32,-3.581989255631218e-05
1785.32,-0.00025865817844048303
1781.32,-0.000329484181037993
1777.33,-0.0003176442232838228
1773.33,-0.0002586217444312165
1769.33,-0.00024156389965059643
1765.33,-0.0003272088345928944
1761.34,-0.0004125246981378767
1757.34,-0.0003112669526050566
1753.34,5.3274913573446485e-05
1749.34,0.0004741035208081761
1745.35,0.0006786666493734057
1741.35,0.0006285302364119605
1737.35,0.00038075179198055457
1733.35,1.0453562335959415e-05
1729.36,-0.000342838376514957
1725.36,-0.0005571273655426172
1721.36,-0.0005667115150097383
1717.36,-0.00045130212189259936
1713.37,-0.0003938416760339024
1709.37,-0.00034395423465469893
1705.37,-6.038719641991836e-05
1701.37,0.000447826830935685
1697.37,0.0007357802135918832
1693.38,0.0006545229919902595
1689.38,0.0005338816379075031
1685.38,0.0005627863171900462
1681.38,0.0005222271574204824
1677.39,0.0002026900122033224
1673.39,-0.00016882312698487636
1669.39,-0.00022984199366025783
1665.39,-2.9709878990445886e-05
1661.4,9.811453138396746e-05
1657.4,3.693155989320269e-05
1653.4,-1.7988699916056466e-05
1649.4,7.32832851306298e-05
1645.41,0.00010652239588811482
1641.41,-2.5733222046264126e-05
1637.41,-0.00011991569847013227
1633.41,2.41992026568261e-05
1629.42,0.00027461984640300333
1625.42,0.000346192912501449
1621.42,0.00017055959834618085
1617.42,-4.165011825368156e-05
1613.42,-8.35758236332265e-05
1609.43,1.8146237130675236e-05
1605.43,0.00013377407750327073
1601.43,0.0002053726704785863
1597.43,0.0002597626623316766
1593.44,0.0003133947390471162
1589.44,0.00031173835374552966
1585.44,0.0001967773807466951
1581.44,5.205414121281487e-06
1577.45,-0.00012699435574607971
1573.45,-9.571008204785502e-05
1569.45,4.230389028854105e-05
1565.45,0.00017802367677490684
1561.46,0.0002765632734584478
1557.46,0.00034782871640690727
1553.46,0.00039299784024673636
1549.46,0.00040905858386714437
1545.47,0.0003836713288492843
1541.47,0.0002880207455306627
1537.47,0.00014493941710527
1533.47,2.931190852538877e-05
1529.47,-3.379894796577128e-05
1525.48,-5.917047619359718e-05
1521.48,-6.14740650032288e-05
1517.48,-3.395420182436099e-05
1513.48,2.378859143566383e-05
1509.49,4.2722821383920625e-05
1505.49,-6.810710923501225e-05
1501.49,-0.00025015852010493877
1497.49,-0.00034311325686694745
1493.5,-0.00026624291294571694
1489.5,-0.00010088260060604277
1485.5,7.745425579117817e-07
1481.5,1.4301654746245996e-05
1477.51,2.145272057984172e-05
1473.51,8.048674693900379e-05
1469.51,0.000164734687234128
1465.51,0.0002211408270133852
1461.52,0.00022371532080055586
1457.52,0.00017097062916949352
1453.52,0.00011704310852067394
1449.52,0.00012182253120288891
1445.53,0.00016397153798983563
1441.53,0.0001807546516278974
1437.53,0.00015798204491360667
1433.53,0.00015004028894328723
1429.53,0.00016459830342610977
1425.54,0.00013327057603430479
1421.54,4.273045323978708e-05
1417.54,-4.9806089310845395e-06
1413.54,4.5905677821430435e-05
1409.55,0.00013292137160814704
1405.55,0.00022458261214230774
1401.55,0.00037786426592177
1397.55,0.0005650882802399232
1393.56,0.0005786107950225524
1389.56,0.0003123133607199921
1385.56,-2.3009479009973948e-05
1381.56,-0.0001567611106038202
1377.57,-7.355864035192837e-05
1373.57,2.3921244742563205e-05
1369.57,1.7394816640480794e-05
1365.57,-1.933112503938219e-05
1361.58,-1.8268472441844162e-05
1357.58,-2.0379424462944623e-05
1353.58,-4.107261617826034e-05
1349.58,-1.2681065064856495e-05
1345.58,8.866021135702212e-05
1341.59,0.0001790815230024798
1337.59,0.00018942988051463732
1333.59,0.0001650488487731927
1329.59,0.00016129881472618727
1325.6,0.00015434904123492866
1321.6,0.00011198334694210104
1317.6,6.309218305981051e-05
1313.6,3.991199922683889e-05
1309.61,1.964932151674337e-05
1305.61,-1.8047173341193292e-05
1301.61,-3.8781435216233576e-05
1297.61,-5.903676265953391e-06
1293.62,5.96628641343518e-05
1289.62,0.00010749190085780539
1285.62,0.00011394872450288926
1281.62,8.354757133221527e-05
1277.63,3.2621481832333674e-05
1273.63,-1.0812930662881903e-05
1269.63,-2.450006002089819e-05
1265.63,-1.6542573429065823e-05
1261.63,-4.4948699636575436e-06
1257.64,2.25926177361019e-05
1253.64,7.533237221127809e-05
1249.64,0.00012126925160644132
1245.64,0.00013023408774057515
1241.65,0.00013403078506375033
1237.65,0.00017283205270940435
1233.65,0.00020936178317787363
1229.65,0.00017907473189905543
1225.66,0.00010364200793539085
1221.66,5.013589270585932e-05
1217.66,-4.060996552392627e-06
1213.66,-0.00014277827198171082
1209.67,-0.000336770798399952
1205.67,-0.00042843774454130425
1201.67,-0.00033627923565299336
1197.67,-0.0001693764060178369
1193.68,-7.731898374061954e-05
1189.68,-7.256816155799581e-05
1185.68,-6.85229023457161e-05
1181.68,-1.3426268367786481e-05
1177.68,7.780371631815007e-05
1173.69,0.00016263421270450572
1169.69,0.00018050037832529923
1165.69,8.099990548258677e-05
1161.69,-9.380133081434984e-05
1157.7,-0.00020470395443900687
1153.7,-0.00015208426082040672
1149.7,1.2016579891061586e-05
1145.7,0.00014860208337202845
1141.71,0.00017421841373555836
1137.71,0.00010180079592770704
1133.71,-1.483802348387832e-06
1129.71,-5.09678307747788e-05
1125.72,9.931543490557136e-06
1121.72,0.0001427284094418175
1117.72,0.00022247926795309277
1113.72,0.000171635729036061
1109.73,5.0114409456586273e-05
1105.73,-3.822871256298209e-05
1101.73,-7.977534944770538e-05
1097.73,-0.0001251031221075816
1093.74,-0.00017061953753536846
1089.74,-0.0001633367297460667
1085.74,-0.00011151521748170348
1081.74,-9.724043414395405e-05
1077.74,-0.0001533780318076312
1073.75,-0.00019300431098972658
1069.75,-0.00010998462661541939
1065.75,7.718137310036497e-05
1061.75,0.0002371039871746643
1057.76,0.00027098104345236703
1053.76,0.00019958577825950782
1049.76,9.096517257425933e-05
1045.76,-5.232506619549695e-05
1041.77,-0.00026246752839466814
1037.77,-0.0004816925010451455
1033.77,-0.0005638653695526876
1029.77,-0.00043270637214091274
1025.78,-0.0001663626030567743
1021.78,0.0001074901888360401
1017.78,0.0003258395369443622
1013.78,0.0004533114471704798
1009.79,0.00043284325556352496
1005.79,0.0002771738435754454
1001.79,0.0001299355502748757
997.79,0.0001164481376005215
993.79,0.00018553689619375238
989.8,0.00019532667975021267
985.8,0.00011573951463248636
981.8,3.7287481705361394e-05
977.8,2.6982109940184164e-05
973.81,9.258047792320868e-05
969.81,0.00022906047539752701
965.81,0.00037052701196720663
961.81,0.0003584358728044444
957.82,0.00012495999980338194
953.82,-0.00012903982995687038
949.82,-0.0001435887616089766
945.82,4.6070605606327034e-05
941.83,0.00014944150320002082
937.83,8.746538850494362e-06
933.83,-0.0002686635466935633
929.83,-0.0005553371533552194
925.84,-0.00082866475661426
921.84,-0.001039498807946027
917.84,-0.0010906345833655157
913.84,-0.000995027618059058
909.84,-0.0008370366518875488
905.85,-0.0005245953913585519
901.85,0.0001763994311511013
897.85,0.0012468128751648583
893.85,0.0022825180916490385
889.86,0.0028642172145921297
885.86,0.002789367384601816
881.86,0.0020947613242886976
877.86,0.0011804924537603075
873.87,0.0006924788457694593
869.87,0.0008664127840266174
865.87,0.0011816455567659893
861.87,0.0011206470201657159
857.88,0.0009775583040863975
853.88,0.0010819406502267114
849.88,0.0008759514499166629
845.88,-0.00010036806972584588
841.89,-0.000778242922225954
837.89,0.00015909686850081153
833.89,0.0017049193495561122
829.89,0.0012973531444176983
825.89,-0.0008594296603995781
821.9,-0.0018509530110790424
817.9,-0.0006136507154036123
813.9,0.00044875176433911766
809.9,-0.00044766908537500994
805.91,-0.0012161645205221547
801.91,0.0009678154586433245
797.91,0.0045606813137714225
793.91,0.0062686316268026196
789.92,0.00569389969519285
785.92,0.004386242695932151
781.92,0.0037006954895947497
777.92,0.003971579489741758
773.93,0.005417081465531985
769.93,0.006392528427550812
765.93,0.003986783250977555
761.93,0.0008197104353790833
757.94,0.005842633665714921
753.94,0.017993176281681716
749.94,0.02158951593213451
745.94,0.01599478269611385
741.95,0.007094740928735076
737.95,-0.007226758627557446
733.95,-0.02565375005866456
729.95,-0.051116555286018314
725.95,-0.07439900649650553
721.96,-0.06447839283787256
717.96,-0.04387278500052283
713.96,-0.016582954834973535
709.96,-0.004896044535763641
705.97,-0.009092669973437797
701.97,0.03172188216304979
697.97,0.07895685632533866
693.97,0.12168695738979908
689.98,0.16620586386826366
685.98,0.23006403363897532
681.98,0.19667365688636954
677.98,0.1492447924680748
673.99,0.06001867970217931
669.99,0.0856581697581994
665.99,-0.09274683114877894
661.99,-0.040332120869563975
658.0,-0.03278220506989254
654.0,-0.32202019550931266
650.0,-0.2400334227295784
