wavenumber,transmittance
4000.0,0.0010416946324971349
3996.0,0.002011634487687373
3992.0,0.0020300470120778427
3988.01,0.0009517069258873084
3984.01,-0.00048240331944603024
3980.01,-0.0014919649790176269
3976.01,-0.001774558818752176
3972.02,-0.0013602916057439943
3968.02,-0.0005775089104449746
3964.02,-0.00010951763901676951
3960.02,-0.0003703215730115514
3956.03,-0.000926001614514192
3952.03,-0.0009947979312311703
3948.03,-0.0004821243273720772
3944.03,-3.16202757128223e-05
3940.04,8.46296945899265e-06
3936.04,-9.071486009071908e-05
3932.04,-0.00010746876294637327
3928.04,-0.00021252117933753153
3924.05,-0.00043326300374347957
3920.05,-0.0004471235339967046
3916.05,-0.0003202679789695981
3912.05,-0.0007448206267214824
3908.05,-0.00203731062199749
3904.06,-0.003380037916974277
3900.06,-0.0034213769623300475
3896.06,-0.0020543963583038935
3892.06,-0.0003932245544142782
3888.07,0.000748982344526048
3884.07,0.0010189684217906745
3880.07,0.0003104015510040016
3876.07,-0.0010349887916915128
3872.08,-0.0022158398710762812
3868.08,-0.0024857914720923004
3864.08,-0.002004115602649708
3860.08,-0.0012938405377652615
3856.09,-0.00024285019729061114
3852.09,0.0011391840932061875
3848.09,0.0017994205650212881
3844.09,0.0011118818187663513
3840.1,2.6497409454354303e-05
3836.1,0.0001190271106321671
3832.1,0.0013751711530385967
3828.1,0.0022709962650445787
3824.11,0.0024845295972804582
3820.11,0.0030357837320641344
3816.11,0.003968838111120331
3812.11,0.0035621383238898362
3808.11,0.0008819884425885968
3804.12,-0.0027400333246712155
3800.12,-0.004388773289318826
3796.12,-0.003191900675568369
3792.12,-0.0012373559735499601
3788.13,-2.2008127115163576e-05
3784.13,0.00014152875686315692
3780.13,-0.0009346182786072459
3776.13,-0.003199079355226833
3772.14,-0.005579538963090748
3768.14,-0.0064816294262278066
3764.14,-0.005861256273125543
3760.14,-0.005394419667986408
3756.15,-0.005913804423259491
3752.15,-0.0060380354545773295
3748.15,-0.0038790325299089806
3744.15,-0.00042569215311822126
3740.16,0.001530484242692402
3736.16,0.0012090211553780644
3732.16,-0.00026878681194333394
3728.16,-0.0017015021444480468
3724.16,-0.002640292167655327
3720.17,-0.002918910723114113
3716.17,-0.0023150460942955066
3712.17,-0.0011945058407618154
3708.17,-0.000532248540292676
3704.18,-0.0008080690525201267
3700.18,-0.0014588579479216603
3696.18,-0.0016074490991545714
3692.18,-0.00078082168191386
3688.19,0.0006907107827024191
3684.19,0.0020754460374080245
3680.19,0.0030896843581521847
3676.19,0.0035491190753520856
3672.2,0.002774514782442113
3668.2,0.0004518028242423688
3664.2,-0.002230619675649179
3660.2,-0.0037581328551895897
3656.21,-0.0031935423338178325
3652.21,-0.0006695441386824505
3648.21,0.0016735617378735987
3644.21,0.001985546097857711
3640.21,0.001046233768315861
3636.22,0.00026739073107029046
3632.22,0.0005418846574300095
3628.22,0.002306255260084322
3624.22,0.005046887438192477
3620.23,0.007275458609681394
3616.23,0.007525093905199488
3612.23,0.00540856847009158
3608.23,0.0020226786740493692
3604.24,-0.0010073977778353818
3600.24,-0.0029344088736914554
3596.24,-0.0037313626362845734
3592.24,-0.003364098544169165
3588.25,-0.0023374264983049026
3584.25,-0.0016575825693735428
3580.25,-0.0014538299116045436
3576.25,-0.0008063529042353807
3572.26,0.0008371204671846676
3568.26,0.00271807799968912
3564.26,0.0036248286534294417
3560.26,0.003431166472276652
3556.26,0.002642866890031191
3552.27,0.0012176875783564706
3548.27,-0.0006480803363335609
3544.27,-0.0015571420052168392
3540.27,-0.00036884440106015677
3536.28,0.001779990430461934
3532.28,0.002588391042508463
3528.28,0.0012866984811761516
3524.28,-0.0005498380848462657
3520.29,-0.0011586671337386705
3516.29,-0.00044320154693859674
3512.29,0.0007998217178307601
3508.29,0.0020098511446646965
3504.3,0.002467418614721022
3500.3,0.0011346565597021754
3496.3,-0.0018829638609112798
3492.3,-0.004700396544232509
3488.31,-0.005347762810272774
3484.31,-0.0037738835982859616
3480.31,-0.0017242916606228825
3476.31,-0.0006565218987813899
3472.32,-0.00039447374744185483
3468.32,0.00015281423270881083
3464.32,0.0015808786516614104
3460.32,0.003178627479100066
3456.32,0.0034836905014246737
3452.33,0.001783478339660781
3448.33,-0.0008610952717565529
3444.33,-0.0024216307423775615
3440.33,-0.0021738270741429506
3436.34,-0.001371277088174853
3432.34,-0.0012435583497306688
3428.34,-0.0013509793572401237
3424.34,-0.0006355349859722227
3420.35,0.000615997097871074
3416.35,0.0010925431834933588
3412.35,0.0004999613018053069
3408.35,-2.169752784769854e-05
3404.36,0.0003234423995569456
3400.36,0.0008881836107465001
3396.36,0.0006521421859240073
3392.36,-0.000353575011546179
3388.37,-0.0013114780911422964
3384.37,-0.0017386770296423629
3380.37,-0.0018094148933323992
3376.37,-0.0018270908585841438
3372.37,-0.0019526655471859761
3368.38,-0.00209848075093528
3364.38,-0.0017877961003800924
3360.38,-0.0006102558530161742
3356.38,0.0010250423340642425
3352.39,0.002045024460932442
3348.39,0.0018367549851747032
3344.39,0.0008087979373197367
3340.39,-0.0003239910696212023
3336.4,-0.001207584122386785
3332.4,-0.001501918132873948
3328.4,-0.000747362840051916
3324.4,0.0008453491742482966
3320.41,0.0020693292554709573
3316.41,0.002036148181902579
3312.41,0.0014090064552757014
3308.41,0.0014209433184300111
3304.42,0.0020570441940876497
3300.42,0.0021872387776873895
3296.42,0.0013818000837498591
3292.42,0.000409725368598947
3288.42,-0.00012963069516648275
3284.43,-0.000643191409218519
3280.43,-0.0014474180538858812
3276.43,-0.0018491926878607002
3272.43,-0.0012492964988415989
3268.44,-0.000344597848452093
3264.44,-0.00028577572067412763
3260.44,-0.0011399816764548281
3256.44,-0.0020105205006235595
3252.45,-0.0023863939582506335
3248.45,-0.002609247849533593
3244.45,-0.003003947013792122
3240.45,-0.0033176675996870048
3236.46,-0.0031630967993020375
3232.46,-0.002361388935812241
3228.46,-0.0009221527714256384
3224.46,0.00076353123314197
3220.47,0.0018837669259133504
3216.47,0.001839170655123814
3212.47,0.0009820455737314276
3208.47,0.00023755423190186813
3204.47,-2.5834814457853197e-05
3200.48,-0.00018019519597456271
3196.48,-0.0004381621591475775
3192.48,-0.0003933000525695382
3188.48,0.0003369672699703093
3184.49,0.0014933161847909828
3180.49,0.002472888367458652
3176.49,0.002834823660391756
3172.49,0.0023716475703137673
3168.5,0.0011113219154607066
3164.5,-0.0005036886321973388
3160.5,-0.0017071728010107905
3156.5,-0.002111043096939668
3152.51,-0.002072335708409045
3148.51,-0.0020713343014084544
3144.51,-0.0020235140335126086
3140.51,-0.001530092947657184
3136.52,-0.0006483207148690022
3132.52,8.121140529998683e-05
3128.52,0.0003094879451915945
3124.52,0.00018842154806050993
3120.53,1.566910406816008e-05
3116.53,-0.00012750875139047566
3112.53,-0.000250940826701192
3108.53,-0.0002370237507686034
3104.53,3.889841827379562e-05
3100.54,0.0005022130806409604
3096.54,0.000958986996347302
3092.54,0.0013118758491233791
3088.54,0.0015698181489112485
3084.55,0.001619949657183231
3080.55,0.0012040081271924557
3076.55,0.00030687838972321145
3072.55,-0.0005757684075445211
3068.56,-0.000805739816690468
3064.56,-0.0003095145144218673
3060.56,0.0002386595001198528
3056.56,0.00014221979942167584
3052.57,-0.0005185274022290956
3048.57,-0.0010580748230207707
3044.57,-0.0010681609486884558
3040.57,-0.0007837398283796156
3036.58,-0.0005118211233835963
3032.58,-0.00015544442330112435
3028.58,0.000419445456819262
3024.58,0.0009079781972999153
3020.58,0.0008725340014636713
3016.59,0.0004366632000663917
3012.59,0.000287837796753691
3008.59,0.0008555457726498978
3004.59,0.0017728809469703232
3000.6,0.002295242547747924
2996.6,0.0020495568918792676
2992.6,0.0012632474850623853
2988.6,0.00040498300893772424
2984.61,-0.0001446267263182625
2980.61,-0.00021623219894301377
2976.61,5.003821230243264e-05
2972.61,0.00023540781662909253
2968.62,-2.965681583791143e-05
2964.62,-0.0006280813267063416
2960.62,-0.0009434625940478538
2956.62,-0.0004789142106285396
2952.63,0.0005507201829110371
2948.63,0.0013786626178751299
2944.63,0.0014671937429675053
2940.63,0.0010019463851552478
2936.63,0.0005629747769947816
2932.64,0.0004069860337763804
2928.64,0.00022803950993482768
2924.64,-0.0002735065150498572
2920.64,-0.0008138982219456828
2916.65,-0.0007923933304598977
2912.65,-0.00011703421995248775
2908.65,0.0006429302768821129
2904.65,0.0008731037453699174
2900.66,0.0004230942075985978
2896.66,-0.00033258644817681354
2892.66,-0.0008666826633470924
2888.66,-0.0009291049471727113
2884.67,-0.0007133866036820378
2880.67,-0.000612596733530581
2876.67,-0.0007417915905995558
2872.67,-0.0008051409338700128
2868.68,-0.0005402637346814724
2864.68,-0.00014534199750485335
2860.68,-2.440807288965624e-05
2856.68,-0.00019564530724288455
2852.68,-0.00027765927515874765
2848.69,-0.0001213787688092748
2844.69,-3.3821525882196276e-05
2840.69,-0.00021027913704486204
2836.69,-0.0003843892603595743
2832.7,-0.00025017975217845695
2828.7,8.635169258470962e-05
2824.7,0.00032942732663692804
2820.7,0.0004810280336912411
2816.71,0.0007734214782919666
2812.71,0.0011863439481243617
2808.71,0.0013876313699213438
2804.71,0.001159706558655611
2800.72,0.0006311767507830473
2796.72,5.084392607274537e-05
2792.72,-0.0003908523096566757
2788.72,-0.0005005874489715658
2784.73,-0.00016806401984706347
2780.73,0.0003686248285190434
2776.73,0.0006130259482468218
2772.73,0.00036007290692990207
2768.74,-2.541449419863416e-05
2764.74,-9.236957032884949e-05
2760.74,9.957835136270801e-05
2756.74,0.00010797798943220136
2752.74,-0.00025556101913141186
2748.75,-0.0006976342146381815
2744.75,-0.0008362929142258523
2740.75,-0.0006178379130089634
2736.75,-0.0003136163159582411
2732.76,-0.00021304222403334245
2728.76,-0.0003945359903329745
2724.76,-0.000704250343462287
2720.76,-0.0008958828888670107
2716.77,-0.0008239205665983648
2712.77,-0.0005273656475840365
2708.77,-0.00015482004885511365
2704.77,0.00016172873712038373
2700.78,0.0003138706693873349
2696.78,0.0002012005307682258
2692.78,-0.00014651212562741465
2688.78,-0.00048274778243053855
2684.79,-0.000523647672610084
2680.79,-0.00023298375471520312
2676.79,0.00015481728299984046
2672.79,0.00039924060812883416
2668.79,0.00046546872838239717
2664.8,0.0004793406306546875
2660.8,0.0005681239436273182
2656.8,0.0007314081705132242
2652.8,0.0007836833455162389
2648.81,0.0004744612828313337
2644.81,-0.00016365392634717474
2640.81,-0.0006429105318778211
2636.81,-0.000511438146765527
2632.82,-4.895604875953193e-05
2628.82,-6.40861266608625e-05
2624.82,-0.0007779011614372175
2620.82,-0.0013891654573054996
2616.83,-0.0011827386154151067
2612.83,-0.0005978250756484882
2608.83,-0.00054574070094944
2604.83,-0.0009635918032183282
2600.84,-0.0009654315640740096
2596.84,-0.00037880866876433656
2592.84,-0.00013786673680645469
2588.84,-0.0008302766099989415
2584.84,-0.0019341716478876731
2580.85,-0.0026201342808265396
2576.85,-0.002536246956538213
2572.85,-0.0016001614582364387
2568.85,0.00012180074921562761
2564.86,0.0019578622990449584
2560.86,0.0028122278973021567
2556.86,0.0023585663547388133
2552.86,0.0012792691487510815
2548.87,0.0002223786710245606
2544.87,-0.0007401823540477106
2540.87,-0.001545944834467159
2536.87,-0.0019920837363950083
2532.88,-0.0022863159826433882
2528.88,-0.0028785838803909993
2524.88,-0.0034942550355451787
2520.88,-0.003206634233491765
2516.89,-0.002028364626701889
2512.89,-0.0014835527128065006
2508.89,-0.0024465004949050058
2504.89,-0.003647135007524829
2500.89,-0.0032072881678459507
2496.9,-0.0012675587035601205
2492.9,0.0005668930827106914
2488.9,0.001521792100115744
2484.9,0.002149547020761198
2480.91,0.0028525112686140866
2476.91,0.002842072373412441
2472.91,0.0012022325444212988
2468.91,-0.0015087435579703252
2464.92,-0.0035985421067440794
2460.92,-0.004357393894593487
2456.92,-0.004441752511821986
2452.92,-0.0046016676799488536
2448.93,-0.004627571802002692
2444.93,-0.0035536764567720225
2440.93,-0.0010678812570046878
2436.93,0.0017859623113594258
2432.94,0.00361679536869263
2428.94,0.003682001498904868
2424.94,0.0018554120277143541
2420.94,-0.0010143912896027128
2416.95,-0.0031094994856506854
2412.95,-0.003202677210329145
2408.95,-0.001947507477654173
2404.95,-0.0012293127100528357
2400.95,-0.0017739146562186748
2396.96,-0.0023548881312346536
2392.96,-0.0019440307417768682
2388.96,-0.001232029254059943
2384.96,-0.0013373077747390045
2380.97,-0.002074796190799337
2376.97,-0.002337538250290447
2372.97,-0.001785459234447767
2368.97,-0.0012616504282724616
2364.98,-0.0011139735073153107
2360.98,-0.0005456046581273178
2356.98,0.0005887902340238415
2352.98,0.0011739392214048584
2348.99,0.000569663258292508
2344.99,-0.0007748579269094027
2340.99,-0.0018077132538476032
2336.99,-0.0017729130393356295
2333.0,-0.0009288956083407371
2329.0,-4.002120063813994e-05
2325.0,0.0002899399238480946
2321.0,-0.00023317961353675024
2317.0,-0.0014333089574995374
2313.01,-0.002726178747946619
2309.01,-0.003872863481261622
2305.01,-0.005393327402821403
2301.01,-0.0073597192444582364
2297.02,-0.008538706075372281
2293.02,-0.0076187554060729995
2289.02,-0.004820713426295497
2285.02,-0.0014842703725598302
2281.03,0.0011004569647422961
2277.03,0.0014179801136137034
2273.03,-0.0023552623033838874
2269.03,-0.008930134909385243
2265.04,-0.011327501345539616
2261.04,-0.006067747579369398
2257.04,0.00034041066388917554
2253.04,-0.0001333172324271091
2249.05,-0.007652120947889926
2245.05,-0.011347146294617822
2241.05,-0.005044636247523532
2237.05,0.003920423332152337
2233.05,0.006109482328911985
2229.06,-0.000211372525705094
2225.06,-0.006907655121549402
2221.06,-0.009823478664037839
2217.06,-0.006694874304066213
2213.07,-0.00014948211259009248
2209.07,0.003955337103778037
2205.07,0.0014949905798426213
2201.07,-0.0067957952173091475
2197.08,-0.012192834451517762
2193.08,-0.011974352052799607
2189.08,-0.01197891526512702
2185.08,-0.008129332118591234
2181.09,0.007347252426609003
2177.09,0.028280846007792147
2173.09,0.03570722559225301
2169.09,0.018179097961884313
2165.1,-0.0062473574398610515
2161.1,-0.01417985424504233
2157.1,-0.004839933095175453
2153.1,0.00913422723551045
2149.11,0.014827681731741859
2145.11,0.008648232910990221
2141.11,-0.002545715918924166
2137.11,-0.015966189194144095
2133.11,-0.02468911228371655
2129.12,-0.023832605265453027
2125.12,-0.019432928536460597
2121.12,-0.015424021087886295
2117.12,-0.011960402909409255
2113.13,-0.009243676417284276
2109.13,-0.007753543895547329
2105.13,-0.005926005271674787
2101.13,-0.0020018045076485944
2097.14,0.0025559872147287487
2093.14,0.005331023686802719
2089.14,0.004223613718743793
2085.14,-0.0004994111352501482
2081.15,-0.003907049313592121
2077.15,-0.004575589829487291
2073.15,-0.006273166273575485
2069.15,-0.01036559675399035
2065.16,-0.010020496069914607
2061.16,-0.00620268965916078
2057.16,-0.0024963882809057895
2053.16,-0.0010700881871841877
2049.16,-0.0014116709288722127
2045.17,0.005064906723921288
2041.17,0.010729975741608505
2037.17,-0.005623074391940935
2033.17,-0.02239637525270113
2029.18,-0.02131043791310092
2025.18,0.007087338245464374
2021.18,0.027429554718348664
2017.18,0.02450595046535749
2013.19,0.009888992651134297
2009.19,-0.011128690510543032
2005.19,-0.020354826099212048
2001.19,-0.013158644198972981
1997.2,-0.0067727538092198425
1993.2,0.0017675017554846333
1989.2,0.010883039647052943
1985.2,0.014516964241376969
1981.21,0.009776564079934427
1977.21,-0.003149986631719152
1973.21,-0.0008630406559779832
1969.21,0.01272325052330144
1965.21,0.019663254447636058
1961.22,0.018991185945129788
1957.22,0.018847127798436974
1953.22,0.02075678725056014
1949.22,0.019759683216855936
1945.23,0.014709655071539941
1941.23,0.006567678950485616
1937.23,0.0016229673396344374
1933.23,-0.0025743163760225682
1929.24,-0.006913896390687363
1925.24,-0.007339682515456528
1921.24,-0.004475116946593727
1917.24,-0.0008752901911203547
1913.25,0.0018679815135044077
1909.25,0.0025668785896729254
1905.25,0.0025715857771693214
1901.25,0.002586279816763783
1897.26,0.0020068484844561842
1893.26,0.0009496164307505573
1889.26,0.00023456872342781605
1885.26,0.00011388386611561912
1881.26,0.0007122459563533647
1877.27,0.0020006353961278486
1873.27,0.0034270141792098786
1869.27,0.004160674851519773
1865.27,0.003312800042234215
1861.28,0.0010844239617647266
1857.28,-0.0013739644481087744
1853.28,-0.003191565148936183
1849.28,-0.0033942374427091697
1845.29,-0.0017904373001898172
1841.29,3.556144689967181e-05
1837.29,0.0007380726866488856
1833.29,0.00022405326921537248
1829.3,-0.0006777492219041083
1825.3,-0.001233276767799132
1821.3,-0.0014185788966991602
1817.3,-0.0012906300165064525
1813.31,-0.000711815733918263
1809.31,0.00022548908215398313
1805.31,0.001087194800895003
1801.31,0.0013893786378379237
1797.32,0.0010152864938622178
1793.32,0.0003683770558253076
1789.32,-0.00015496361274984968
1785.32,-0.00048089253282489636
1781.32,-0.0006548564682899502
1777.33,-0.0006797408350996651
1773.33,-0.0005807918396347697
1769.33,-0.0004993321896230805
1765.33,-0.0005588963756415909
1761.34,-0.000660044167607358
1757.34,-0.0005813261865921786
1753.34,-0.00021801825585942707
1749.34,0.00021506894829415477
1745.35,0.0004120005863305289
1741.35,0.0003311316936276474
1737.35,8.039244086160577e-05
1733.35,-0.00022010163470319479
1729.36,-0.000479021203022914
1725.36,-0.0006529470649387471
1721.36,-0.000716004619778865
1717.36,-0.0007184327963209015
1713.37,-0.000762146341012018
1709.37,-0.0007659674544262217
1705.37,-0.0004927168834871492
1701.37,5.9280922112070384e-05
1697.37,0.000414655462316216
1693.38,0.00034792252548317116
1689.38,0.00016697017666181813
1685.38,0.00012776947175054189
1681.38,0.00010392043767695361
1677.39,-0.00011583463495706017
1673.39,-0.0003874587819963003
1669.39,-0.0004054032308767306
1665.39,-0.0002088997600999307
1661.4,-0.00010596710243754491
1657.4,-0.00021427808832891974
1653.4,-0.0003276711597318212
1649.4,-0.0002521546888180694
1645.41,-0.00018058949973317508
1641.41,-0.0002791681114882481
1637.41,-0.00039140125551688515
1633.41,-0.0003015214769399161
1629.42,-8.329035420236087e-05
1625.42,1.2758125643889207e-05
1621.42,-8.865472590292102e-05
1617.42,-0.00020990562426563238
1613.42,-0.00018155914744438727
1609.43,-5.0253040414657584e-05
1605.43,5.667904398371682e-05
1601.43,0.00010532472994090652
1597.43,0.00015616408893261142
1593.44,0.00023887300100643462
1589.44,0.00027483210086984885
1585.44,0.00017032648212938868
1581.44,-4.9956743144215735e-05
1577.45,-0.00023335564344450845
1573.45,-0.0002517819102710726
1569.45,-0.0001609695504808821
1565.45,-8.475917024667477e-05
1561.46,-4.408480261465858e-05
1557.46,2.3721452107537072e-05
1553.46,0.00011762332465796151
1549.46,0.00016720158952480957
1545.47,0.00012274977830741855
1541.47,-1.4898565215537758e-05
1537.47,-0.00015528313464836194
1533.47,-0.0002308532967073269
1529.47,-0.0002683298644786124
1525.48,-0.0003005839400030778
1521.48,-0.0003208517451526071
1517.48,-0.0003007532279328871
1513.48,-0.00024743417527226154
1509.49,-0.0002332357338391749
1505.49,-0.00033439465818284526
1501.49,-0.0004951327932675314
1497.49,-0.0005750208384022689
1493.5,-0.0004945290452528507
1489.5,-0.0003170718929818807
1485.5,-0.0001927359302815628
1481.5,-0.00016589409298287634
1477.51,-0.00016204980992608515
1473.51,-0.00010267986481413333
1469.51,-1.5455234980586549e-06
1465.51,6.164629839921155e-05
1461.52,3.679478898171953e-05
1457.52,-4.858600612893039e-05
1453.52,-8.653018797716525e-05
1449.52,-3.103189692706852e-05
1445.53,4.598598241866317e-05
1441.53,6.62383697739405e-05
1437.53,4.044305827120979e-05
1433.53,4.319440168626278e-05
1429.53,6.461044811399505e-05
1425.54,1.592228546594792e-05
1421.54,-0.00010547999490451305
1417.54,-0.00017562701052670118
1413.54,-0.0001442508333703639
1409.55,-8.853845506131541e-05
1405.55,-2.827260232591727e-05
1401.55,0.00012143467242880921
1397.55,0.0003381683321376415
1393.56,0.0003890208551305037
1389.56,0.00014940414015428809
1385.56,-0.00016420623186592475
1381.56,-0.00027566571605433884
1377.57,-0.000179461240279129
1373.57,-8.965564773217076e-05
1369.57,-0.00011985267314247158
1365.57,-0.0001793133794138322
1361.58,-0.00018385075528182907
1357.58,-0.00017039304517888518
1353.58,-0.00017003407895826726
1349.58,-0.00013939829483847435
1345.58,-5.992531947024569e-05
1341.59,1.5270330891923065e-05
1337.59,5.139672429900394e-05
1333.59,7.637172539433968e-05
1329.59,8.964024839585006e-05
1325.6,4.3623432130639315e-05
1321.6,-5.268719623490682e-05
1317.6,-0.00011372839970800421
1313.6,-0.00010301062004571009
1309.61,-8.437295710458914e-05
1305.61,-0.00010322840717767117
1301.61,-0.00011567727184993167
1297.61,-7.620325533939214e-05
1293.62,-1.6284662660261054e-05
1289.62,8.621235994242671e-06
1285.62,-5.8436413660649596e-06
1281.62,-3.391855058826373e-05
1277.63,-6.391292492339889e-05
1273.63,-9.024360110953805e-05
1269.63,-0.0001024153279287248
1265.63,-0.00010084947562707635
1261.63,-9.015646138376191e-05
1257.64,-5.5329731265470525e-05
1253.64,8.737415734178189e-06
1249.64,6.0585542587594365e-05
1245.64,6.378264484798653e-05
1241.65,5.269413280362833e-05
1237.65,7.759470038396928e-05
1233.65,0.00010846994010288078
1229.65,7.941502425994691e-05
1225.66,8.607625988877e-06
1221.66,-3.524337067663675e-05
1217.66,-7.256596288105666e-05
1213.66,-0.00019256253584269133
1209.67,-0.0003753379181591025
1205.67,-0.0004662947397632219
1201.67,-0.00037956922177902246
1197.67,-0.00022027685242569016
1193.68,-0.00013836012976158366
1189.68,-0.00014698497480753272
1185.68,-0.0001565682639633193
1181.68,-0.00011102598014593107
1177.68,-2.504927486367388e-05
1173.69,5.4496713281528285e-05
1169.69,6.454698710691861e-05
1165.69,-3.9083695738945403e-05
1161.69,-0.00020304087974572067
1157.7,-0.00028604827337211293
1153.7,-0.00020277220332496663
1149.7,-2.3015380443072332e-05
1145.7,0.00011234628214919231
1141.71,0.00013320355599685726
1137.71,6.268253067850948e-05
1133.71,-3.41225625090533e-05
1129.71,-7.761368697983455e-05
1125.72,-1.2304384740314777e-05
1121.72,0.00011978983268616911
1117.72,0.00018546652720146558
1113.72,0.00010580143351884822
1109.73,-4.757328542636776e-05
1105.73,-0.00015702094188592202
1101.73,-0.00020408165295306022
1097.73,-0.00024085403608475726
1093.74,-0.000267656910868344
1089.74,-0.0002423499766220386
1085.74,-0.0001875606893972963
1081.74,-0.00018421020866863814
1077.74,-0.0002444697978371211
1073.75,-0.0002673938204320642
1069.75,-0.00016021131620898898
1065.75,3.3821794552171257e-05
1061.75,0.00017525697348745806
1057.76,0.0001754660476118165
1053.76,6.769458900499618e-05
1049.76,-6.995332734715471e-05
1045.76,-0.0002247089502830534
1041.77,-0.00042687163920808663
1037.77,-0.0006314200395136801
1033.77,-0.000704991503042936
1029.77,-0.0005696907454958191
1025.78,-0.00029923232733229703
1021.78,-2.9348261393082175e-05
1017.78,0.0001711156832377583
1013.78,0.0002823530097523016
1009.79,0.0002649790619291021
1005.79,0.00012076009984387655
1001.79,-3.135478755637706e-05
997.79,-6.280491627939431e-05
993.79,4.551123397819802e-06
989.8,3.894356715354706e-05
985.8,-1.6283059925271552e-05
981.8,-9.411129550825902e-05
977.8,-0.0001136243315012883
973.81,-3.710577864086449e-05
969.81,0.00013427442077053618
965.81,0.0003061126280921736
961.81,0.0002896242260383419
957.82,1.879198167168542e-05
953.82,-0.00026405988764351015
949.82,-0.0002529043109373127
945.82,1.4327900319528441e-05
941.83,0.00018855726940423802
937.83,6.96652344680893e-05
933.83,-0.0002036396062300995
929.83,-0.00045788558694821214
925.84,-0.0007016719567534576
921.84,-0.0009619269599763701
917.84,-0.001135023202307284
913.84,-0.0011295279354880474
909.84,-0.0009649908653174842
905.85,-0.0006089924088781604
901.85,0.00010195819590369725
897.85,0.001179326947245252
893.85,0.0022807339865599254
889.86,0.0029613544595232296
885.86,0.0029401185130149936
881.86,0.0022276782965209474
877.86,0.0012432886152255842
873.87,0.0006321398870106283
869.87,0.0006430717102481541
865.87,0.0008565509170033955
861.87,0.000847109228360702
857.88,0.0008439021204963155
853.88,0.0010164955557376474
849.88,0.0007723254301449666
845.88,-0.0002398705411415263
841.89,-0.0008950323252077839
837.89,7.626073435709032e-05
833.89,0.0016188211792155611
829.89,0.0011775186002059607
825.89,-0.0010083506203481397
821.9,-0.0019637831157154895
817.9,-0.0005631278864522621
813.9,0.00072355976562144
809.9,-0.00018429323606311332
805.91,-0.001303006905429431
801.91,0.000533176545368909
797.91,0.00422613616888091
793.91,0.006347820325121303
789.92,0.006000620713239801
785.92,0.004589958074429021
781.92,0.0036366827534595495
777.92,0.003711074880608374
773.93,0.005004882544064962
769.93,0.005896006455292341
765.93,0.0043048552613843055
761.93,0.0029625830405638326
757.94,0.009661494716898958
753.94,0.023114986123344287
749.94,0.02755968253225564
745.94,0.02200136487402418
741.95,0.012021357241377642
737.95,-0.005722321118150007
733.95,-0.02706080538363777
729.95,-0.05337774588694516
725.95,-0.0778368735189549
721.96,-0.06856731806189875
717.96,-0.044348277565014055
713.96,-0.008369947902504256
709.96,0.016466482815460454
705.97,0.01635700376362703
701.97,0.04865711061513652
697.97,0.08093274572800609
693.97,0.11046686863666373
689.98,0.1620204125805849
685.98,0.2317949774969675
681.98,0.20224074788926907
677.98,0.14098342128236419
673.99,0.038408718614686636
669.99,0.07270334794603592
665.99,-0.09578145482568717
661.99,-0.020303407667364732
658.0,0.005970508707335881
654.0,-0.28198109935613247
650.0,-0.23564781794486006
