wavenumber,transmittance
4000.0,-0.011878757775480382
3996.0,-0.012876339719163002
3992.0,-0.013650853206014762
3988.01,-0.01568998561706138
3984.01,-0.017375553837576236
3980.01,-0.01659203151653276
3976.01,-0.014265711131467242
3972.02,-0.01239400335135691
3968.02,-0.01083925839610073
3964.02,-0.008774993255041058
3960.02,-0.00735935454250142
3956.03,-0.008138170478089908
3952.03,-0.010086145324517145
3948.03,-0.010874980089301477
3944.03,-0.010526569738504793
3940.04,-0.01060665916500933
3936.04,-0.011282346435004182
3932.04,-0.012002241080315938
3928.04,-0.013365012396703646
3924.05,-0.015427324164534136
3920.05,-0.015927893515974734
3916.05,-0.014118707226164378
3912.05,-0.014044754335292899
3908.05,-0.019504651695836463
3904.06,-0.027541570306920154
3900.06,-0.030250316080906788
3896.06,-0.02670799853294191
3892.06,-0.02422209017418598
3888.07,-0.026479723964362198
3884.07,-0.029861392037321705
3880.07,-0.03078762576444969
3876.07,-0.03096665178485018
3872.08,-0.03228153729370713
3868.08,-0.032619936674457846
3864.08,-0.030183515861119482
3860.08,-0.027177728325665704
3856.09,-0.026094247771114902
3852.09,-0.02668566168031941
3848.09,-0.02822923955121135
3844.09,-0.031143610938745868
3840.1,-0.034137520764915774
3836.1,-0.033755097180320305
3832.1,-0.03045898041812588
3828.1,-0.029338162167376218
3824.11,-0.031260032281751185
3820.11,-0.030823174854179243
3816.11,-0.024942727915202294
3812.11,-0.0193876167763388
3808.11,-0.01886492861079922
3804.12,-0.019761447231726
3800.12,-0.015832820765023285
3796.12,-0.009012326202101432
3792.12,-0.0061511705147810555
3788.13,-0.008352691672049228
3784.13,-0.0116407641630004
3780.13,-0.012952533406416058
3776.13,-0.013264553654286425
3772.14,-0.01442488440950976
3768.14,-0.016456365522135474
3764.14,-0.01933099766630531
3760.14,-0.024392601521362432
3756.15,-0.03246557512488571
3752.15,-0.04193716738584103
3748.15,-0.04938390347779016
3744.15,-0.052873581272863554
3740.16,-0.052742990431076234
3736.16,-0.04915199599628555
3732.16,-0.04291011606057963
3728.16,-0.03653147616746739
3724.16,-0.03223899927363021
3720.17,-0.030672993175999946
3716.17,-0.03104314547339695
3712.17,-0.030644947168729255
3708.17,-0.026276126244199734
3704.18,-0.019454506813040444
3700.18,-0.01637904162629675
3696.18,-0.020604049845061555
3692.18,-0.02798404542971453
3688.19,-0.030162717382374384
3684.19,-0.026122842699569042
3680.19,-0.023028592123312434
3676.19,-0.023945748677587853
3672.2,-0.022798951499091273
3668.2,-0.015885514368049185
3664.2,-0.01111736994179009
3660.2,-0.01672653962904805
3656.21,-0.032558362715925195
3652.21,-0.047704863962223176
3648.21,-0.047810198277835794
3644.21,-0.03614072721727828
3640.21,-0.02715891339150076
3636.22,-0.026590819757728347
3632.22,-0.03107279283297777
3628.22,-0.03438252581191293
3624.22,-0.034202206816979656
3620.23,-0.03308573924966449
3616.23,-0.03227301148595855
3612.23,-0.02952471167655602
3608.23,-0.02380461869067764
3604.24,-0.018638869125454344
3600.24,-0.01806622313231472
3596.24,-0.02214555304366575
3592.24,-0.026939433639895906
3588.25,-0.02775367619506334
3584.25,-0.02388102453040913
3580.25,-0.019146587609548838
3576.25,-0.017568496699991824
3572.26,-0.02019024208787501
3568.26,-0.024529964380878455
3564.26,-0.026569315848102508
3560.26,-0.025282998417225498
3556.26,-0.023219784708794218
3552.27,-0.02210813653550502
3548.27,-0.020968736339976025
3544.27,-0.018672682000470876
3540.27,-0.01669543013210921
3536.28,-0.017138635249899732
3532.28,-0.019150114525153257
3528.28,-0.019279284188793093
3524.28,-0.0152809003298594
3520.29,-0.009208016747666994
3516.29,-0.005646353609446219
3512.29,-0.007122188652541245
3508.29,-0.011639255742091422
3504.3,-0.01420186450859297
3500.3,-0.01174371965990793
3496.3,-0.006699265879978323
3492.3,-0.004338120315746378
3488.31,-0.007024684581320512
3484.31,-0.01220762045747809
3480.31,-0.015626955262688903
3476.31,-0.01571418241630462
3472.32,-0.014259900453426002
3468.32,-0.01363588616264367
3464.32,-0.014856394435717804
3460.32,-0.01740949532671151
3456.32,-0.01984779804513262
3452.33,-0.02088182184780798
3448.33,-0.02027350838872775
3444.33,-0.018591647874519186
3440.33,-0.015847377391657286
3436.34,-0.011884534937459015
3432.34,-0.008011512696227166
3428.34,-0.0065702569931107065
3424.34,-0.008263961425356736
3420.35,-0.010928645626433402
3416.35,-0.011759805835454764
3412.35,-0.01004572615273305
3408.35,-0.007224230625872111
3404.36,-0.00529562230702863
3400.36,-0.005767098536678533
3396.36,-0.008879911243975306
3392.36,-0.012767977711907505
3388.37,-0.014415149238334701
3384.37,-0.012693685060945177
3380.37,-0.009696528594542647
3376.37,-0.008044233059996936
3372.37,-0.008223246130904496
3368.38,-0.009360613423136007
3364.38,-0.010847695850965056
3360.38,-0.01173186017875838
3356.38,-0.010338007130737547
3352.39,-0.006460689767841199
3348.39,-0.002715529174686147
3344.39,-0.001550932051143778
3340.39,-0.0022075692944340895
3336.4,-0.0023341341250999147
3332.4,-0.001506596945545717
3328.4,-0.0012265621330006006
3324.4,-0.002119123352349917
3320.41,-0.0034933062287923634
3316.41,-0.005086645817927837
3312.41,-0.006902714765275287
3308.41,-0.007576638273817424
3304.42,-0.005688290511829631
3300.42,-0.0028843345898691974
3296.42,-0.002707914130237063
3292.42,-0.005886126370335625
3288.42,-0.009283576749930212
3284.43,-0.010388987059626287
3280.43,-0.01049593429286936
3276.43,-0.01169652961129291
3272.43,-0.013415834183000675
3268.44,-0.014050861807899651
3264.44,-0.013986778712456516
3260.44,-0.014517675419803346
3256.44,-0.015105776587972068
3252.45,-0.014299452318461659
3248.45,-0.012707032061797397
3244.45,-0.012456958460693536
3240.45,-0.013879883094745929
3236.46,-0.014905574377050916
3232.46,-0.013963259003488014
3228.46,-0.01189782485767132
3224.46,-0.010539091669803987
3220.47,-0.010600903427477212
3216.47,-0.011506079460207552
3212.47,-0.01250904584598415
3208.47,-0.01342120095791815
3204.47,-0.014396536623273379
3200.48,-0.015251825765676326
3196.48,-0.015232088672341179
3192.48,-0.013804183520579086
3188.48,-0.01176495169665725
3184.49,-0.010780738326614636
3180.49,-0.011445689424365175
3176.49,-0.012487251784662638
3172.49,-0.012484265347797265
3168.5,-0.011670296849119126
3164.5,-0.011146889366564198
3160.5,-0.011032972503598547
3156.5,-0.010601251999119949
3152.51,-0.009897337470712019
3148.51,-0.009855373441000568
3144.51,-0.010793891605245076
3140.51,-0.011956276821560967
3136.52,-0.01281486909854097
3132.52,-0.01381230437833917
3128.52,-0.015213862157564602
3124.52,-0.016043101084286953
3120.53,-0.01514673921987876
3116.53,-0.013058489448669644
3112.53,-0.011749996981622412
3108.53,-0.012381509976638295
3104.53,-0.013934848115860996
3100.54,-0.014499455512672513
3096.54,-0.013529272171659494
3092.54,-0.012113161355229498
3088.54,-0.011117654155721291
3084.55,-0.010141181930483188
3080.55,-0.008517048240198073
3076.55,-0.006630376684250393
3072.55,-0.005454101618411408
3068.56,-0.005146863909447626
3064.56,-0.005065325504894979
3060.56,-0.004985219411805967
3056.56,-0.0054153121892946895
3052.57,-0.006664391745230647
3048.57,-0.008397002768827915
3044.57,-0.010230383493516779
3040.57,-0.012036456683755806
3036.58,-0.013309753001320368
3032.58,-0.012960966284610985
3028.58,-0.010425574551142125
3024.58,-0.006557071064100015
3020.58,-0.002937605763798687
3016.59,-0.0006118134287304705
3012.59,0.0005104167556793521
3008.59,0.00147122863386865
3004.59,0.003502501019927877
3000.6,0.006969342651631821
2996.6,0.011030913227881918
2992.6,0.014694040971630663
2988.6,0.01795578909788679
2984.61,0.02145294066680408
2980.61,0.02514194342456008
2976.61,0.028025022131596473
2972.61,0.02919949604167662
2968.62,0.02869642522303264
2964.62,0.027245059152144063
2960.62,0.025580612982432777
2956.62,0.02418363394212885
2952.63,0.023272894675462282
2948.63,0.022709013814293577
2944.63,0.022145862507042115
2940.63,0.021459025737588712
2936.63,0.020748250318108678
2932.64,0.01982299549474294
2928.64,0.018264152523117402
2924.64,0.016225050571201192
2920.64,0.014645737604197705
2916.65,0.01411922110613325
2912.65,0.014011566829674079
2908.65,0.013359369101880961
2904.65,0.011959129307648267
2900.66,0.010257931683554898
2896.66,0.008776771708920241
2892.66,0.007863380071044299
2888.66,0.007616135666130723
2884.67,0.007759932858431684
2880.67,0.0077875781942721364
2876.67,0.00739964797835381
2872.67,0.006612955771001221
2868.68,0.005453663714651717
2864.68,0.003996045570833422
2860.68,0.0027919929860490654
2856.68,0.0026528908048621506
2852.68,0.00366035559749869
2848.69,0.004837782678840052
2844.69,0.005301327632839137
2840.69,0.005147934207207867
2836.69,0.0047467258844846
2832.7,0.004129596887025326
2828.7,0.0034889780516131116
2824.7,0.003372241545721369
2820.7,0.0038071150091629497
2816.71,0.004029601891629882
2812.71,0.0036923636117656665
2808.71,0.0035976198178055974
2804.71,0.00436533697350058
2800.72,0.005108320702362173
2796.72,0.00458122670570035
2792.72,0.0030730336476978808
2788.72,0.002018344289847195
2784.73,0.001964955339368312
2780.73,0.0021484817685903518
2776.73,0.0021076768511586515
2772.73,0.002431986621630815
2768.74,0.0035177774389772484
2764.74,0.0046080141062412525
2760.74,0.004670941927454498
2756.74,0.003629129301443334
2752.74,0.0022903192721606697
2748.75,0.0014170123402460228
2744.75,0.0012528218016068376
2740.75,0.0016170405254832647
2736.75,0.0021079583718093247
2732.76,0.0024258193689118378
2728.76,0.002635887301197159
2724.76,0.00296913039271484
2720.76,0.0033966055856036233
2716.77,0.003691515000423931
2712.77,0.0038536345458432784
2708.77,0.004101407851851478
2704.77,0.004417674420609533
2700.78,0.004537807337241224
2696.78,0.004503887761271313
2692.78,0.004766756170932028
2688.78,0.0055495885005921695
2684.79,0.006485743840054153
2680.79,0.007150971258413914
2676.79,0.007700197299680101
2672.79,0.00867744446269565
2668.79,0.010295116737628325
2664.8,0.012108291917720464
2660.8,0.013413063347613458
2656.8,0.013854196380093163
2652.8,0.013679493329285971
2648.81,0.013498372965221604
2644.81,0.013644584464276247
2640.81,0.013787354097026194
2636.81,0.013356712967003108
2632.82,0.012384162600454314
2628.82,0.011719720200153114
2624.82,0.012244700160020043
2620.82,0.013990406426182428
2616.83,0.016134738717279655
2612.83,0.017525065847211127
2608.83,0.017371634640560206
2604.83,0.015621104262573656
2600.84,0.01254934518809408
2596.84,0.008514224173924192
2592.84,0.004574860634042405
2588.84,0.0028211574267134817
2584.84,0.004548562509753877
2580.85,0.007722281171860877
2576.85,0.00871682403560995
2572.85,0.006636167397281715
2568.85,0.004282059627628315
2564.86,0.00432649405660966
2560.86,0.005285676983202322
2556.86,0.004127186218830628
2552.86,0.0008400610996875122
2548.87,-0.0019323761231859636
2544.87,-0.0021106340017043824
2540.87,0.0002618510343511066
2536.87,0.00436898759780408
2532.88,0.00844293243254586
2528.88,0.009534700854479352
2524.88,0.005762221884443681
2520.88,-0.0010065755087004698
2516.89,-0.0065223982428239844
2512.89,-0.00889178366637152
2508.89,-0.009111663756538647
2504.89,-0.007487042336172746
2500.89,-0.003698839367415937
2496.9,0.00045922309691040844
2492.9,0.0020201575120317693
2488.9,0.0005558641022185892
2484.9,-0.0011454831741917835
2480.91,-0.000775497468138861
2476.91,0.0013889945270000818
2472.91,0.004359125134911218
2468.91,0.007919357234398607
2464.92,0.011662698395876355
2460.92,0.014205575916642899
2456.92,0.014409287164014522
2452.92,0.012882757165369418
2448.93,0.010972779813781785
2444.93,0.009010269372667723
2440.93,0.006832085366459666
2436.93,0.0043762486107554455
2432.94,0.0019170321624921334
2428.94,0.00013691985206721463
2424.94,-0.0006469278424798951
2420.94,-0.0008316237525548519
2416.95,-0.0010318062655976703
2412.95,-0.0018062601939596232
2408.95,-0.0027935747312086007
2404.95,-0.0028954290124050854
2400.95,-0.00202623885220524
2396.96,-0.0013061562009639253
2392.96,-0.0017375640112002738
2388.96,-0.0029909963943808553
2384.96,-0.003572362871353373
2380.97,-0.0023298790024919988
2376.97,0.00030879556747392435
2372.97,0.0021359144413614856
2368.97,0.0013080692797900776
2364.98,-0.0008815931434075462
2360.98,-0.0011596521030517374
2356.98,0.0009981016781400315
2352.98,0.002872306246443673
2348.99,0.0027577565992468996
2344.99,0.0015760295675630366
2340.99,0.0014882013298137685
2336.99,0.003480628895775541
2333.0,0.006201221225407108
2329.0,0.00775916209450382
2325.0,0.00715328218431681
2321.0,0.004233473325685797
2317.0,6.055378311479141e-05
2313.01,-0.0028959381678858535
2309.01,-0.002564714009105355
2305.01,0.0005874417076778297
2301.01,0.004679222466853388
2297.02,0.008043793292213336
2293.02,0.009139693767072089
2289.02,0.007575252552839679
2285.02,0.004960950087464762
2281.03,0.004946867091527095
2277.03,0.010338275839968356
2273.03,0.017068020728249506
2269.03,0.018312991719187675
2265.04,0.009559916813367994
2261.04,-0.008119831051789659
2257.04,-0.02667286183274059
2253.04,-0.03942748519881915
2249.05,-0.034830494235179865
2245.05,-0.012562579536482071
2241.05,0.012571561014786512
2237.05,0.032863400733892184
2233.05,0.04574040773948394
2229.06,0.04981888906408906
2225.06,0.04334164566902727
2221.06,0.029579315709062068
2217.06,0.016138522989457896
2213.07,0.008081937466068573
2209.07,0.010697348155133471
2205.07,0.01998053168495801
2201.07,0.029572332356349984
2197.08,0.03306074930516219
2193.08,0.031475481991134174
2189.08,0.01875789131004696
2185.08,-0.009480485935393796
2181.09,-0.04090165270112408
2177.09,-0.054787288284449766
2173.09,-0.03268883519622555
2169.09,0.010047016082589379
2165.1,0.042180781444614665
2161.1,0.0649235109221585
2157.1,0.09111201838403478
2153.1,0.10659882785889997
2149.11,0.08634103901176776
2145.11,0.04918183195109169
2141.11,0.0214886412581879
2137.11,0.006017028031719506
2133.11,-0.0008646690640283974
2129.12,-0.0013924841691660625
2125.12,8.119709425979862e-05
2121.12,0.002384819633007399
2117.12,2.0096422198001215e-05
2113.13,-0.013346919210972629
2109.13,-0.03430579048412323
2105.13,-0.04747869030027978
2101.13,-0.043010658028224194
2097.14,-0.033908650150569604
2093.14,-0.03234191661909026
2089.14,-0.03250208841678957
2085.14,-0.023730220144378273
2081.15,-0.009371304972029024
2077.15,0.005009543871831187
2073.15,0.02110260997503874
2069.15,0.03317181425858246
2065.16,0.03223042824095286
2061.16,0.023057357223975755
2057.16,0.024583909720548178
2053.16,0.03044850584548383
2049.16,0.03205176091335741
2045.17,0.05269592466293773
2041.17,0.08997405125826072
2037.17,0.08862441367973287
2033.17,0.06701405302924603
2029.18,0.02773593397311648
2025.18,-0.02140019056696956
2021.18,-0.02942950633997377
2017.18,-0.02247865049565679
2013.19,-0.02810044799706613
2009.19,-0.011475738635812046
2005.19,0.010619343465927217
2001.19,0.026218153703577093
1997.2,0.032043609932069915
1993.2,0.017352314951171368
1989.2,-0.007643219775101566
1985.2,-0.04301665736044767
1981.21,-0.07598382631834244
1977.21,-0.04954702074588246
1973.21,-0.018974855249635877
1969.21,-0.00013488756074175358
1965.21,0.012267451901635505
1961.22,0.02343030952102852
1957.22,0.019778358409146976
1953.22,-0.0033807267351306995
1949.22,-0.03624524465751731
1945.23,-0.04895456940300609
1941.23,-0.03544933800805135
1937.23,-0.028251734646296704
1933.23,-0.03912291866465509
1929.24,-0.04485694012872639
1925.24,-0.029507250136687983
1921.24,-0.011940118621084777
1917.24,-0.0060573927205977394
1913.25,-0.005897095321331349
1909.25,-0.005643686996327789
1905.25,-0.009975487209549239
1901.25,-0.01971412226500839
1897.26,-0.02426215025394301
1893.26,-0.017484272274549163
1889.26,-0.008940189105610745
1885.26,-0.005304389451816937
1881.26,-0.003916612686363872
1877.27,-0.0033455712520841663
1873.27,-0.007315694515946866
1869.27,-0.014591176080513621
1865.27,-0.016389413685457082
1861.28,-0.010996267300070396
1857.28,-0.008414243007030467
1853.28,-0.013149594628419796
1849.28,-0.018329225595696098
1845.29,-0.01724988272308681
1841.29,-0.015256561921828412
1837.29,-0.01800521405272744
1833.29,-0.021605860721190927
1829.3,-0.020246477285738036
1825.3,-0.016338477551821433
1821.3,-0.014521074092436121
1817.3,-0.013968958474328396
1813.31,-0.01295655694505657
1809.31,-0.013498246429259002
1805.31,-0.01730262135874428
1801.31,-0.02180661607756976
1797.32,-0.02295651356341381
1793.32,-0.02088796342557561
1789.32,-0.018477052950353515
1785.32,-0.017158091073044644
1781.32,-0.017768580279722838
1777.33,-0.02129452529372873
1773.33,-0.02583303327166908
1769.33,-0.026379548110891316
1765.33,-0.022730695089208178
1761.34,-0.021230449644047626
1757.34,-0.025321767740408955
1753.34,-0.03103608212885605
1749.34,-0.03290551974520117
1745.35,-0.03309038277496469
1741.35,-0.03584325113050563
1737.35,-0.03800138225095365
1733.35,-0.03436920360310681
1729.36,-0.0295290993275321
1725.36,-0.030263170847885816
1721.36,-0.0352210551837374
1717.36,-0.03732971363902196
1713.37,-0.035788527868657355
1709.37,-0.03710639343618967
1705.37,-0.04234937354987051
1701.37,-0.04373705015288294
1697.37,-0.0369259615314895
1693.38,-0.028756798820134447
1689.38,-0.023284111511699398
1685.38,-0.017390451485555375
1681.38,-0.008954665266900565
1677.39,-0.00022522731828066717
1673.39,0.007857732781252756
1669.39,0.016357773547445262
1665.39,0.023333263085018686
1661.4,0.024737697279377614
1657.4,0.019454603305456578
1653.4,0.012231951123869815
1649.4,0.009870915678330656
1645.41,0.010814367763583702
1641.41,0.009518103409508892
1637.41,0.0050013251381336304
1633.41,-0.00021580335231687064
1629.42,-0.004655720830079514
1625.42,-0.00867991356757615
1621.42,-0.011632061563749956
1617.42,-0.011878778590079853
1613.42,-0.009562972377408212
1609.43,-0.006360170375029128
1605.43,-0.0035241017772422306
1601.43,-0.0016122670786575186
1597.43,-0.0003109608218611337
1593.44,0.0015423950786530652
1589.44,0.00414378811687105
1585.44,0.005786143244560817
1581.44,0.00568798452330075
1577.45,0.006360296260295488
1573.45,0.00998996165943003
1569.45,0.013602896214494675
1565.45,0.013217260077329068
1561.46,0.010725762114039
1557.46,0.012314625152322081
1553.46,0.016224726898441316
1549.46,0.014277625169572997
1545.47,0.004462080186979786
1541.47,-0.005012874645124135
1537.47,-0.005402564551189773
1533.47,-0.0034495143327474415
1529.47,-0.007769625442516012
1525.48,-0.01668386118815174
1521.48,-0.022582974631325345
1517.48,-0.02445320389907421
1513.48,-0.02701571951110767
1509.49,-0.02842614514878681
1505.49,-0.023402365075882302
1501.49,-0.015170458715207544
1497.49,-0.009879339463927161
1493.5,-0.00657065252383679
1489.5,-0.0008668545048290469
1485.5,0.006318765139544012
1481.5,0.010631864640941395
1477.51,0.011772737134980449
1473.51,0.013441356482800808
1469.51,0.016252931658610116
1465.51,0.01588264936512527
1461.52,0.01125377455652881
1457.52,0.008671441994598475
1453.52,0.013278317041533455
1449.52,0.01954334913967698
1445.53,0.020691026455534535
1441.53,0.016485816213300572
1437.53,0.01142135601569308
1433.53,0.008371727701503344
1429.53,0.005604746403768901
1425.54,0.0018049258901358042
1421.54,-0.000857278526601786
1417.54,-0.00025704148206448507
1413.54,0.002053949016362362
1409.55,0.003399114985658494
1405.55,0.00303241024464615
1401.55,0.0023309004661351065
1397.55,0.0036404917192492253
1393.56,0.00803956918055826
1389.56,0.013437058027103536
1385.56,0.016172225500872807
1381.56,0.014662180995573142
1377.57,0.01080415503436722
1373.57,0.00789937982556621
1369.57,0.007332172871107982
1365.57,0.008236387586049818
1361.58,0.00957507702283348
1357.58,0.010662105556482643
1353.58,0.010370608964164526
1349.58,0.007774262139023085
1345.58,0.0038190985716279845
1341.59,0.0013392387099890116
1337.59,0.002134868622568016
1333.59,0.004751044103001277
1329.59,0.006537173726117448
1325.6,0.006572749140489439
1321.6,0.005968157559415363
1317.6,0.006224125560049289
1313.6,0.007888089473233658
1309.61,0.010600136109279321
1305.61,0.013837463715088826
1301.61,0.017290174209376282
1297.61,0.02068198407898437
1293.62,0.023650473556025783
1289.62,0.026049563457274764
1285.62,0.02816842498047711
1281.62,0.030404641094317925
1277.63,0.032768274240384664
1273.63,0.03485506375385472
1269.63,0.036267640240654285
1265.63,0.036957934383865125
1261.63,0.03727761331785383
1257.64,0.03778357491480814
1253.64,0.038988145870401315
1249.64,0.041153136065479504
1245.64,0.04399093634165016
1241.65,0.046510323602246176
1237.65,0.04745857574596336
1233.65,0.04630214988691367
1229.65,0.04370645197752651
1225.66,0.040268545977712455
1221.66,0.03397031421017371
1217.66,0.022256259713096194
1213.66,0.020411712946494465
1209.67,0.028072623676297592
1205.67,0.03142423435386943
1201.67,0.031463808147167094
1197.67,0.02935206525404635
1193.68,0.025628312199849124
1189.68,0.02175849177327048
1185.68,0.01945325049914553
1181.68,0.019261664981300733
1177.68,0.020510685764964315
1173.69,0.022374470209445475
1169.69,0.024324183971588434
1165.69,0.025668957715832226
1161.69,0.025640945564402967
1157.7,0.024263054299821736
1153.7,0.022470049591237065
1149.7,0.02101300007534363
1145.7,0.019604310733193846
1141.71,0.017452585640972712
1137.71,0.014400361438389062
1133.71,0.011263040476068284
1129.71,0.009172762801637702
1125.72,0.008756652464522358
1121.72,0.00979979660783624
1117.72,0.011438087325509015
1113.72,0.012815243156041777
1109.73,0.013825147441541948
1105.73,0.015172047847570296
1101.73,0.017563013817065654
1097.73,0.020785646059099612
1093.74,0.02358315124240998
1089.74,0.024554520739404614
1085.74,0.02355690697938666
1081.74,0.022258094505660086
1077.74,0.0227187297230513
1073.75,0.025242872425025514
1069.75,0.02790597112326879
1065.75,0.028575979193190503
1061.75,0.027123662477974726
1057.76,0.02508560795101103
1053.76,0.023828320009978192
1049.76,0.023709225550939628
1045.76,0.02446662978335886
1041.77,0.025522468847648118
1037.77,0.02601168644942445
1033.77,0.025410938857655982
1029.77,0.02421295906845777
1025.78,0.023284945181628634
1021.78,0.02266593912193192
1017.78,0.02174158521223565
1013.78,0.020450616692834957
1009.79,0.019311990258010243
1005.79,0.0182349801285187
1001.79,0.01641220784051859
997.79,0.013695956499820394
993.79,0.011156707240383774
989.8,0.009804860940992121
985.8,0.009406434037977952
981.8,0.009080493833701834
977.8,0.008440326468645116
973.81,0.007576223354181656
969.81,0.0064404922850980015
965.81,0.004749534479880385
961.81,0.002097980589979006
957.82,-0.002020919916707966
953.82,-0.007479378048980398
949.82,-0.012394039690593352
945.82,-0.013847787559453682
941.83,-0.010836045913080166
937.83,-0.005628149778836591
933.83,-0.0012223582487686166
929.83,0.0014631537018121518
925.84,0.003046407442030684
921.84,0.0036546562251777368
917.84,0.003091202224654036
913.84,0.0021335727162948744
909.84,0.0019958683568380656
905.85,0.002787341184220556
901.85,0.003783351606803629
897.85,0.004788129177131881
893.85,0.005774401229767159
889.86,0.005877488009709298
885.86,0.004288302853541143
881.86,0.0018956902682970532
877.86,0.0004443765573281522
873.87,0.00012751423718724078
869.87,-0.0003256627252549594
865.87,-0.0013706196051335075
861.87,-0.0021405982202183163
857.88,-0.0019991172380648473
853.88,-0.0007410064346864177
849.88,0.002125455888819537
845.88,0.0061938682334649955
841.89,0.00896797251271917
837.89,0.008426216405246868
833.89,0.005689568264274067
829.89,0.00290542195502903
825.89,0.00023468169421003715
821.9,-0.002856334448024467
817.9,-0.0038865233249970738
813.9,0.0006104716947313293
809.9,0.008593269579254117
805.91,0.014126634907134644
801.91,0.014750822880123998
797.91,0.013684700498813068
793.91,0.015602705244789794
789.92,0.022587124976585188
785.92,0.03361888731011836
781.92,0.04479353394504615
777.92,0.054992230957066734
773.93,0.06458258842889353
769.93,0.09241218009954133
765.93,0.07464692726447897
761.93,-0.0163422458670488
757.94,-0.0664793920495017
753.94,0.07306734411518578
749.94,0.025169068346970525
745.94,-0.03273176580049075
741.95,-0.08199024552573386
737.95,-0.05729355619174459
733.95,-0.10639819997594258
729.95,-0.20471545157601057
725.95,-0.2751720637953801
721.96,-0.10922392376773865
717.96,-0.03816457465914669
713.96,-0.026737993583842157
709.96,-0.028662908794106434
705.97,-0.062089963285354266
701.97,-0.22782021139954364
697.97,-0.2987132611448942
693.97,-0.45528041845135325
689.98,-0.296290476264421
685.98,-0.60643112460797
681.98,-0.32641239235570507
677.98,-0.17713325123059606
673.99,0.11347629410699266
669.99,0.2283426391596805
665.99,0.15607446559912092
661.99,0.23423257521879493
658.0,0.2607845210116331
654.0,0.19419681700067834
650.0,0.0003163934441319932
