wavenumber,transmittance
4000.0,-0.009472076533451728
3996.0,-0.010552673337076839
3992.0,-0.011398611374230903
3988.01,-0.01313514471915597
3984.01,-0.014340831393955577
3980.01,-0.013164186803631541
3976.01,-0.01045612671333976
3972.02,-0.00812336454567629
3968.02,-0.0062554125386857905
3964.02,-0.004292772955292771
3960.02,-0.00339788025379412
3956.03,-0.0050011288734765225
3952.03,-0.007916556265088207
3948.03,-0.009506652953101479
3944.03,-0.009601267024219276
3940.04,-0.010010163307757926
3936.04,-0.011235366074898565
3932.04,-0.012590951772856063
3928.04,-0.01431486480736636
3924.05,-0.01655666319728722
3920.05,-0.01744490308771642
3916.05,-0.01610514976179034
3912.05,-0.015963429127701052
3908.05,-0.020491945074014466
3904.06,-0.027061388232983825
3900.06,-0.028470116069419186
3896.06,-0.024124783426497893
3892.06,-0.02118523110213171
3888.07,-0.023263134196818608
3884.07,-0.02668723244038312
3880.07,-0.0276892382262804
3876.07,-0.02802698768189328
3872.08,-0.029928592853003647
3868.08,-0.03121926361993219
3864.08,-0.029425634597025494
3860.08,-0.02646460649222762
3856.09,-0.025397372162728332
3852.09,-0.026562058412327012
3848.09,-0.02892050078449357
3844.09,-0.03231968046425634
3840.1,-0.03542686982611866
3836.1,-0.034918390325012566
3832.1,-0.031298265953493304
3828.1,-0.029820231021916076
3824.11,-0.031655001572029946
3820.11,-0.031464159007030396
3816.11,-0.02574859848936772
3812.11,-0.020124848952204417
3808.11,-0.019916750434417395
3804.12,-0.02203490127057407
3800.12,-0.01957732410975
3796.12,-0.013204458588258704
3792.12,-0.009811137087650117
3788.13,-0.011460496855680883
3784.13,-0.014702490530365054
3780.13,-0.016227760348929407
3776.13,-0.01659133989845489
3772.14,-0.01758908807329257
3768.14,-0.01934230585920995
3764.14,-0.02177498619456397
3760.14,-0.026154751754430064
3756.15,-0.03341473799060063
3752.15,-0.04223592113586768
3748.15,-0.04950775148986267
3744.15,-0.05324843493785433
3740.16,-0.05346455828522768
3736.16,-0.05019974651005997
3732.16,-0.04434983067338247
3728.16,-0.03839398285438832
3724.16,-0.03433567143012464
3720.17,-0.03268574885070176
3716.17,-0.03276961400237308
3712.17,-0.03205351442903994
3708.17,-0.027270043795527856
3704.18,-0.019784297577691456
3700.18,-0.01595124504361441
3696.18,-0.01963127238578049
3692.18,-0.026713445969010333
3688.19,-0.028647923872926192
3684.19,-0.02443735625670619
3680.19,-0.02148923474230268
3676.19,-0.02281207775474845
3672.2,-0.02182812588085592
3668.2,-0.014558466097122927
3664.2,-0.009176463895381248
3660.2,-0.013882070327477715
3656.21,-0.028113977249379158
3652.21,-0.041252385421500115
3648.21,-0.04050827613805267
3644.21,-0.02970582236471193
3640.21,-0.02187346008899152
3636.22,-0.021746965542119873
3632.22,-0.026518331662777974
3628.22,-0.03102529269448798
3624.22,-0.03256135547172884
3620.23,-0.03213867390395738
3616.23,-0.03066799174430987
3612.23,-0.02715138914767281
3608.23,-0.021560411670699754
3604.24,-0.017046363946349685
3600.24,-0.017133861655851075
3596.24,-0.02219170798754629
3592.24,-0.028461776146164335
3588.25,-0.030292005591123168
3584.25,-0.02594585656255119
3580.25,-0.019848326677739676
3576.25,-0.01732684686514498
3572.26,-0.019709900813691564
3568.26,-0.023760186954447572
3564.26,-0.025023231459836277
3560.26,-0.023085714333699967
3556.26,-0.021003387323892366
3552.27,-0.02006549934534544
3548.27,-0.01861887708751019
3544.27,-0.015532227950440805
3540.27,-0.012733141933205738
3536.28,-0.012475634230031361
3532.28,-0.013879524729451784
3528.28,-0.013725573307763542
3524.28,-0.009987247976457442
3520.29,-0.0044537424992866555
3516.29,-0.0012573139954015263
3512.29,-0.002857707300638987
3508.29,-0.00744638606026988
3504.3,-0.009995066181245587
3500.3,-0.007295508208294682
3496.3,-0.002071939706402696
3492.3,-4.2868212172005385e-05
3488.31,-0.0033243511781091894
3484.31,-0.008579874435978697
3480.31,-0.011250741199924133
3476.31,-0.010347817339375405
3472.32,-0.008301039004907536
3468.32,-0.007498998866754821
3464.32,-0.008772248556828484
3460.32,-0.011712254601308389
3456.32,-0.014977650318942059
3452.33,-0.01707212246734068
3448.33,-0.017509306840151284
3444.33,-0.016849296552774118
3440.33,-0.01510031867043281
3436.34,-0.01181800148404501
3432.34,-0.008007010556012207
3428.34,-0.006026802347242552
3424.34,-0.006806396311103491
3420.35,-0.008475483486892104
3416.35,-0.008702437353853953
3412.35,-0.0072162476094396666
3408.35,-0.00519964778761872
3404.36,-0.003712753532802657
3400.36,-0.003704572429545361
3396.36,-0.0059850626088197734
3392.36,-0.009694277259925162
3388.37,-0.012118881876336316
3384.37,-0.011666282962565649
3380.37,-0.0098940886470959
3376.37,-0.009135274687054128
3372.37,-0.009682386741759124
3368.38,-0.010735663901842276
3364.38,-0.012279440866305866
3360.38,-0.013935674123201704
3356.38,-0.01379825886798914
3352.39,-0.010899387931227161
3348.39,-0.007633444289356604
3344.39,-0.007010820190017553
3340.39,-0.008655151377462804
3336.4,-0.009833391159718983
3332.4,-0.009604012864339652
3328.4,-0.009572498743136624
3324.4,-0.010822630200715753
3320.41,-0.01276256109115408
3316.41,-0.014822510319463213
3312.41,-0.016744569084551405
3308.41,-0.017157068246802753
3304.42,-0.014786553203289737
3300.42,-0.011512846744597342
3296.42,-0.01107876245271723
3292.42,-0.014129822917647826
3288.42,-0.0171961408040504
3284.43,-0.017641278653693002
3280.43,-0.017083582149717808
3276.43,-0.017975760130344763
3272.43,-0.01968873640275625
3268.44,-0.020294122376213714
3264.44,-0.020084971080856998
3260.44,-0.02058372079542827
3256.44,-0.021369510209678453
3252.45,-0.02070650246491341
3248.45,-0.01875123951271492
3244.45,-0.017475287598636306
3240.45,-0.017544269397125223
3236.46,-0.01745155773495336
3232.46,-0.01596782531137407
3228.46,-0.013872377392627063
3224.46,-0.012752848189466114
3220.47,-0.013104822646178068
3216.47,-0.014139208276246236
3212.47,-0.01492369094989699
3208.47,-0.015379127211765879
3204.47,-0.016135810143363027
3200.48,-0.01733459549813134
3196.48,-0.017885648201540313
3192.48,-0.01665364663655218
3188.48,-0.014372725912244026
3184.49,-0.01320926577306947
3180.49,-0.014021943980519862
3176.49,-0.015234274213731858
3172.49,-0.015107297089668039
3168.5,-0.013993523511893037
3164.5,-0.01320633265264973
3160.5,-0.012803739959136886
3156.5,-0.01198288392347417
3152.51,-0.01102461434792443
3148.51,-0.011097416401238715
3144.51,-0.012353435131716054
3140.51,-0.013667765699753129
3136.52,-0.014448490958300786
3132.52,-0.015351470139992966
3128.52,-0.016677361962153643
3124.52,-0.0173426065224055
3120.53,-0.016329083019879533
3116.53,-0.014435372151719278
3112.53,-0.013567978039721495
3108.53,-0.0144578074131914
3104.53,-0.01585614511334287
3100.54,-0.016133255296687035
3096.54,-0.01510309348568157
3092.54,-0.013846560707146257
3088.54,-0.01303832487808105
3084.55,-0.01225584699296252
3080.55,-0.010919589784358462
3076.55,-0.009361175685995489
3072.55,-0.00845019488235716
3068.56,-0.008430544576454198
3064.56,-0.008767966546037335
3060.56,-0.00910063915626072
3056.56,-0.009767319556845094
3052.57,-0.01123423880051842
3048.57,-0.013456952844790357
3044.57,-0.015946135551911985
3040.57,-0.018077155309131725
3036.58,-0.019098767512148843
3032.58,-0.01828945743870316
3028.58,-0.015721469944023986
3024.58,-0.012731043996130606
3020.58,-0.011118262472776252
3016.59,-0.011719126768842791
3012.59,-0.013740048749885408
3008.59,-0.015397242356746721
3004.59,-0.015221766731700306
3000.6,-0.013138042664007747
2996.6,-0.010382036631691106
2992.6,-0.008100573997830852
2988.6,-0.006243003602264808
2984.61,-0.004317713402570311
2980.61,-0.0028121547495233296
2976.61,-0.0029628559691668374
2972.61,-0.005163320367728479
2968.62,-0.008322665402827945
2964.62,-0.010992527022783433
2960.62,-0.012569752414945526
2956.62,-0.01313898265636541
2952.63,-0.012812629947253854
2948.63,-0.01179173546447966
2944.63,-0.010511387956530942
2940.63,-0.009207998692737047
2936.63,-0.007758620346817496
2932.64,-0.006291500311996937
2928.64,-0.005383286136677601
2924.64,-0.00528814004623767
2920.64,-0.005420586349809454
2916.65,-0.005124623049767803
2912.65,-0.004609224832088532
2908.65,-0.004472855496740882
2904.65,-0.004859995041248063
2900.66,-0.005518925130053261
2896.66,-0.006084866917137475
2892.66,-0.006197468772952498
2888.66,-0.005731064710338431
2884.67,-0.0050427492352646194
2880.67,-0.004724405712939774
2876.67,-0.004978249116916574
2872.67,-0.005557440604701536
2868.68,-0.006258620194228386
2864.68,-0.006970743308988411
2860.68,-0.007197791758915837
2856.68,-0.006253640585110059
2852.68,-0.004315628109661919
2848.69,-0.002638862573958938
2844.69,-0.0021115850816317873
2840.69,-0.002346141149730809
2836.69,-0.0026952318414056806
2832.7,-0.0031179605315921725
2828.7,-0.003616527672112473
2824.7,-0.003754119392044229
2820.7,-0.0034084905697404633
2816.71,-0.003249403159565978
2812.71,-0.003729702758887416
2808.71,-0.00421816587602746
2804.71,-0.004052098617002111
2800.72,-0.0038597666886879822
2796.72,-0.004684409992854783
2792.72,-0.006243336035691928
2788.72,-0.007234645027562023
2784.73,-0.007273924736372109
2780.73,-0.007264934686959628
2776.73,-0.007666590782556475
2772.73,-0.007668906035024761
2768.74,-0.006633598793072778
2764.74,-0.005338302511605946
2760.74,-0.005052825646563884
2756.74,-0.005974361482797081
2752.74,-0.007192994167615456
2748.75,-0.007883850682354176
2744.75,-0.007952855913571286
2740.75,-0.00774146936529527
2736.75,-0.0075923515272703955
2732.76,-0.007654994149551786
2728.76,-0.007833925940564623
2724.76,-0.00793054722084965
2720.76,-0.007924329990458598
2716.77,-0.007952111674612721
2712.77,-0.00799415112361758
2708.77,-0.007852089691915145
2704.77,-0.0075552347568115215
2700.78,-0.007472004529904228
2696.78,-0.007786945504618186
2692.78,-0.008180190325670302
2688.78,-0.008294734906057925
2684.79,-0.008287027220227675
2680.79,-0.008544638460830095
2676.79,-0.008986882339806039
2672.79,-0.009045086207496873
2668.79,-0.008379619608036508
2664.8,-0.0073557844606548
2660.8,-0.0066711055821504425
2656.8,-0.006634116757814014
2652.8,-0.006904087685180619
2648.81,-0.0068916558786261285
2644.81,-0.0064590814093712
2640.81,-0.006138483569982048
2636.81,-0.006529935951897594
2632.82,-0.007484109311918268
2628.82,-0.008009763419183014
2624.82,-0.007149979900336876
2620.82,-0.004928862183635445
2616.83,-0.002421189084604626
2612.83,-0.000985952870235219
2608.83,-0.001275083119169254
2604.83,-0.003120042176355843
2600.84,-0.006298601365454277
2596.84,-0.010657123691528759
2592.84,-0.01501590389386344
2588.84,-0.016883138142655643
2584.84,-0.014815915859672135
2580.85,-0.01102134284486009
2576.85,-0.009177566178651881
2572.85,-0.00996799149700647
2568.85,-0.010569149370670664
2564.86,-0.008854961739035529
2560.86,-0.006720246243931673
2556.86,-0.007004793544270593
2552.86,-0.009514416218841892
2548.87,-0.011582955393742163
2544.87,-0.010986283041769324
2540.87,-0.007658665390699669
2536.87,-0.0029103894156994473
2532.88,0.0008490994198581871
2528.88,0.0008820234360321973
2524.88,-0.0037271663332687933
2520.88,-0.010534367965003715
2516.89,-0.015673785292520157
2512.89,-0.017881399937914575
2508.89,-0.018339371305992887
2504.89,-0.017352509881029925
2500.89,-0.014606971934562524
2496.9,-0.011787675211499465
2492.9,-0.0116101521662886
2488.9,-0.014329261535446718
2484.9,-0.01706065686109088
2480.91,-0.01729679465240349
2476.91,-0.01507375166263323
2472.91,-0.011414881169297687
2468.91,-0.007052830775351875
2464.92,-0.002842562314357879
2460.92,4.108781478037553e-05
2456.92,0.0008394725819775729
2452.92,0.00016465883392660814
2448.93,-0.0008398199105032252
2444.93,-0.0020986582290538694
2440.93,-0.004038127285865528
2436.93,-0.006451549999727611
2432.94,-0.008390451455285237
2428.94,-0.009079397853023547
2424.94,-0.008542348570296962
2420.94,-0.007592773564305104
2416.95,-0.007011640710631332
2412.95,-0.006981473209449807
2408.95,-0.007003717542681892
2404.95,-0.006391221817002749
2400.95,-0.005327807105989128
2396.96,-0.004758960060435724
2392.96,-0.005368960840066115
2388.96,-0.0066123023306668026
2384.96,-0.006978733307869187
2380.97,-0.005450971882673291
2376.97,-0.0025582837397270086
2372.97,-0.00032906737959209707
2368.97,-0.00028865122271875057
2364.98,-0.0014324864793926078
2360.98,-0.0015224416388352978
2356.98,-0.00036382411607999415
2352.98,0.00035706883928609146
2348.99,-0.00011136834742689859
2344.99,-0.0007723002735676673
2340.99,6.951470560528743e-07
2336.99,0.002666410149371976
2333.0,0.0058652025115455645
2329.0,0.00796297686800977
2325.0,0.008079944275047527
2321.0,0.006133267557815009
2317.0,0.003265869148868509
2313.01,0.0017879943590717604
2309.01,0.0034414563369755003
2305.01,0.007870203248394925
2301.01,0.01392047317983885
2297.02,0.02064471024578382
2293.02,0.02646349297807102
2289.02,0.030330255929475976
2285.02,0.03323845846538326
2281.03,0.03864695013765951
2277.03,0.050354881392192255
2273.03,0.06536038558581599
2269.03,0.07593102190313392
2265.04,0.0740942304344878
2261.04,0.059217885643188466
2257.04,0.0396645942396087
2253.04,0.021661893656250444
2249.05,0.015362049874272046
2245.05,0.022739253865654098
2241.05,0.03282635339779452
2237.05,0.04126776297236373
2233.05,0.04762106697031128
2229.06,0.05018109499655975
2225.06,0.043106896739708724
2221.06,0.028148196877789942
2217.06,0.014729123922177796
2213.07,0.00921709930304199
2209.07,0.013477596528698288
2205.07,0.02037219172480478
2201.07,0.02690488793920526
2197.08,0.03082135375035356
2193.08,0.03224776621602231
2189.08,0.02291623166583974
2185.08,-0.0063071009436778585
2181.09,-0.037361221308006204
2177.09,-0.04861947171908208
2173.09,-0.028432737629581473
2169.09,0.005121458837196075
2165.1,0.024314883791500118
2161.1,0.03701596186811072
2157.1,0.05848136102941982
2153.1,0.07523319775469837
2149.11,0.06524268244580332
2145.11,0.04112395309138569
2141.11,0.02405818557028351
2137.11,0.015612143688908321
2133.11,0.008990171566781887
2129.12,0.005746086504636009
2125.12,0.007018089156318448
2121.12,0.009098454360999247
2117.12,0.004694179571858267
2113.13,-0.0098094844279697
2109.13,-0.029546955978280647
2105.13,-0.041847735326107985
2101.13,-0.03819189791458536
2097.14,-0.0286933582538767
2093.14,-0.024311855927068228
2089.14,-0.02325949421353119
2085.14,-0.018079141695199346
2081.15,-0.00816043461469002
2077.15,0.00529455713431655
2073.15,0.02253397804474004
2069.15,0.03457078821522094
2065.16,0.031903998759840825
2061.16,0.02062947646755354
2057.16,0.017021125490708854
2053.16,0.016675055955118763
2049.16,0.01465498714499933
2045.17,0.03214232075925115
2041.17,0.06652162581138535
2037.17,0.07353242869591949
2033.17,0.0645405263358907
2029.18,0.03502452476451684
2025.18,-0.007448599557529693
2021.18,-0.009739142953638872
2017.18,-0.00014801860580080164
2013.19,-0.010273674315869943
2009.19,0.0018659419539775353
2005.19,0.030259385508665
2001.19,0.05071277900552933
1997.2,0.0624003453165334
1993.2,0.04668651195756242
1989.2,0.010715802400041958
1985.2,-0.03120573595628629
1981.21,-0.06460807135219414
1977.21,-0.04699340118851017
1973.21,-0.023993415101306738
1969.21,-0.011209493771543923
1965.21,-0.005031279726854701
1961.22,0.0064601602819517705
1957.22,0.011971532460572632
1953.22,-0.004283275993710527
1949.22,-0.03395334713455862
1945.23,-0.04696713793410947
1941.23,-0.03498868522029806
1937.23,-0.027208543686850453
1933.23,-0.03644695081332153
1929.24,-0.043676920645376545
1925.24,-0.03206776191206265
1921.24,-0.015355240245633225
1917.24,-0.007396905052147825
1913.25,-0.006433761181348037
1909.25,-0.007790523644044481
1905.25,-0.012709684731731747
1901.25,-0.021302261597502932
1897.26,-0.026063330709647434
1893.26,-0.021943072236729404
1889.26,-0.015003098479534245
1885.26,-0.01019830918666966
1881.26,-0.007034385376145974
1877.27,-0.006194363913405792
1873.27,-0.010318814520390757
1869.27,-0.016942468695062513
1865.27,-0.01842953623877522
1861.28,-0.013900215314583256
1857.28,-0.01177510966739671
1853.28,-0.015527855364302564
1849.28,-0.01944709473027545
1845.29,-0.0182881824427978
1841.29,-0.016650862599436916
1837.29,-0.019116431536230518
1833.29,-0.02226702422500366
1829.3,-0.021005151752217035
1825.3,-0.017337646116097793
1821.3,-0.01558339249976024
1817.3,-0.01545704351552648
1813.31,-0.015296033986957782
1809.31,-0.016297966462036583
1805.31,-0.019840785168397504
1801.31,-0.023993423548439544
1797.32,-0.02522629371087587
1793.32,-0.02325941085638182
1789.32,-0.020579600460553647
1785.32,-0.01898250251210497
1781.32,-0.01957182772013575
1777.33,-0.0230059900062365
1773.33,-0.027347000471288282
1769.33,-0.028192418144305134
1765.33,-0.025280633357067525
1761.34,-0.02401323927017386
1757.34,-0.027567399671645756
1753.34,-0.03285791803253362
1749.34,-0.03506254219933683
1745.35,-0.03557007128579838
1741.35,-0.03799616856032678
1737.35,-0.03995364424933242
1733.35,-0.0370070801393913
1729.36,-0.032865513437739344
1725.36,-0.03351744189339734
1721.36,-0.038184776159384676
1717.36,-0.0406269313752268
1713.37,-0.03955786508286822
1709.37,-0.04078619352922504
1705.37,-0.04620534668482558
1701.37,-0.04955010528158487
1697.37,-0.046240670357288315
1693.38,-0.041968716836460696
1689.38,-0.04136333597413294
1685.38,-0.04200461376869209
1681.38,-0.04053290976091688
1677.39,-0.03797103043664746
1673.39,-0.035829274058544684
1669.39,-0.03313082146213514
1665.39,-0.030504849026679118
1661.4,-0.03158433859392104
1657.4,-0.03814336565612364
1653.4,-0.045157292866379255
1649.4,-0.044770098908935865
1645.41,-0.03899608901555451
1641.41,-0.034367691623479246
1637.41,-0.0322699931332216
1633.41,-0.03103990736418999
1629.42,-0.030298094130568567
1625.42,-0.030553459375220235
1621.42,-0.03060593122770406
1617.42,-0.02845127280354821
1613.42,-0.024317769085181767
1609.43,-0.02010422999025647
1605.43,-0.017036690565933193
1601.43,-0.01543984337685975
1597.43,-0.015056913062845925
1593.44,-0.015150361553903282
1589.44,-0.015543099215522833
1585.44,-0.017494617838902046
1581.44,-0.022090152221985612
1577.45,-0.027839765392225563
1573.45,-0.03208725508591607
1569.45,-0.03566161066563311
1565.45,-0.0415625837442927
1561.46,-0.048235390398724445
1557.46,-0.04904301577192925
1553.46,-0.04504732817610191
1549.46,-0.044927938520220215
1545.47,-0.05101966896863473
1541.47,-0.05542602126195417
1537.47,-0.05122418204498199
1533.47,-0.046174321250175995
1529.47,-0.04783032076958698
1525.48,-0.05371038379245464
1521.48,-0.05670374127044119
1517.48,-0.056240290683826855
1513.48,-0.056266397759218434
1509.49,-0.05448822548138987
1505.49,-0.04657716946729981
1501.49,-0.03649335185397952
1497.49,-0.02994873210781472
1493.5,-0.025979695377754384
1489.5,-0.021033485483630817
1485.5,-0.01617076176974982
1481.5,-0.015009579277316429
1477.51,-0.01723937151542434
1473.51,-0.018315796568342806
1469.51,-0.016551399374999547
1465.51,-0.016381476354682283
1461.52,-0.020013575958532665
1457.52,-0.022145593532211228
1453.52,-0.017583210009336325
1449.52,-0.010994129379132345
1445.53,-0.008740313350358579
1441.53,-0.011165510519979993
1437.53,-0.01398272988220714
1433.53,-0.014419848430517392
1429.53,-0.014339627315604356
1425.54,-0.015497783515730626
1421.54,-0.01623648552683961
1417.54,-0.014395210797249453
1413.54,-0.011356696459599021
1409.55,-0.01028424044724827
1405.55,-0.01236865004560038
1401.55,-0.015464701395318064
1397.55,-0.015686053473088442
1393.56,-0.011471143842584595
1389.56,-0.005729982029511339
1385.56,-0.0023307753971118783
1381.56,-0.0019530892534545194
1377.57,-0.0026244713700139047
1373.57,-0.0030068846822114
1369.57,-0.003774871457434891
1365.57,-0.005311125256317939
1361.58,-0.006029269879638956
1357.58,-0.004784213306016274
1353.58,-0.003393712418387318
1349.58,-0.004477477559008392
1345.58,-0.007854806682391375
1341.59,-0.010360788724229457
1337.59,-0.00967963612022131
1333.59,-0.007193127331397951
1329.59,-0.005659214161514003
1325.6,-0.005935993312009412
1321.6,-0.006812381078082182
1317.6,-0.0068660523536771545
1313.6,-0.005755020260782846
1309.61,-0.0040586746143578475
1305.61,-0.0025274928119109717
1301.61,-0.001569655329634656
1297.61,-0.001142278558194005
1293.62,-0.000949582549905556
1289.62,-0.0007318556506792293
1285.62,-0.0003371375448695188
1281.62,0.00029640134851025013
1277.63,0.0008964274436019937
1273.63,0.0007578779339260863
1269.63,-0.000619203587027127
1265.63,-0.0027105036496754276
1261.63,-0.004269337037064579
1257.64,-0.004716231752965712
1253.64,-0.004431792241840933
1249.64,-0.0034353401746324563
1245.64,-0.0007633187453674195
1241.65,0.004281858132226535
1237.65,0.010658047003954896
1233.65,0.01597435512624748
1229.65,0.018613596608982957
1225.66,0.018964691141146073
1221.66,0.018375456018292935
1217.66,0.017794410033811547
1213.66,0.017618674749306784
1209.67,0.017027729152376825
1205.67,0.01619457869489832
1201.67,0.015298470728027314
1197.67,0.013830751842975803
1193.68,0.011559673898696346
1189.68,0.009101249568186476
1185.68,0.0074775135901886045
1181.68,0.007256039381815939
1177.68,0.008242018207825115
1173.69,0.009887178029474933
1169.69,0.011804218923343691
1165.69,0.013886592318837931
1161.69,0.01608312380943408
1157.7,0.01807838014147501
1153.7,0.01921393991015672
1149.7,0.01883042840859847
1145.7,0.016741274173780338
1141.71,0.013340983892950353
1137.71,0.009417473293161428
1133.71,0.006050727127990228
1129.71,0.00435867233220226
1125.72,0.004845117388283818
1121.72,0.006921131056405735
1117.72,0.00930355571466172
1113.72,0.011082852547207245
1109.73,0.012341989259445373
1105.73,0.013806381661009486
1101.73,0.016176513747974026
1097.73,0.019562451772429802
1093.74,0.022963709560615483
1089.74,0.02443589624712419
1085.74,0.02282812877962364
1081.74,0.01960332596676833
1077.74,0.01770531439553086
1073.75,0.018361198782986466
1069.75,0.019854030621867358
1065.75,0.01984121558273136
1061.75,0.018118512501012252
1057.76,0.016150952753404665
1053.76,0.01482223745135781
1049.76,0.013825537121153208
1045.76,0.012785140200811566
1041.77,0.011830677135626575
1037.77,0.011059850195982043
1033.77,0.010314169675592736
1029.77,0.009602053270024606
1025.78,0.009061294039257917
1021.78,0.008514294118212074
1017.78,0.007810466996281892
1013.78,0.0074961315803501495
1009.79,0.008189111946157542
1005.79,0.009279194087109272
1001.79,0.009286650553870332
997.79,0.00775838586670476
993.79,0.005906698805393426
989.8,0.0050184070704590075
985.8,0.004964496884434741
981.8,0.004777147686418567
977.8,0.00401654075111944
973.81,0.0029334478722895015
969.81,0.00172854454134601
965.81,0.00018034570988301364
961.81,-0.002255457889310593
957.82,-0.006154130060209508
953.82,-0.011263919877605152
949.82,-0.015613589622555823
945.82,-0.01642415141490584
941.83,-0.012888908682424854
937.83,-0.007324823924992813
933.83,-0.002762501684714591
929.83,-0.0003182752235022235
925.84,0.00056001421996002
921.84,0.00041008537797180417
917.84,-0.00047417747088861206
913.84,-0.0013262962377378236
909.84,-0.001335920033370729
905.85,-0.0006158901544888497
901.85,0.0002888993354195589
897.85,0.0013923068652826522
893.85,0.0026213985859213813
889.86,0.002976277387038739
885.86,0.0016496811203982574
881.86,-0.00038853442996789923
877.86,-0.0013356482017306773
873.87,-0.0009210131995523192
869.87,-0.0003522178113269953
865.87,-0.00022744238014899866
861.87,2.4447200798749513e-06
857.88,0.0006878173589014679
853.88,0.0017719578395350537
849.88,0.0034099276043573386
845.88,0.005276571833978481
841.89,0.00588354590893805
837.89,0.004463855442171722
833.89,0.0025900013644059687
829.89,0.0018813284848731918
825.89,0.0013626504315268143
821.9,-0.0007476910130096298
817.9,-0.002969336965634735
813.9,-0.001531059263919693
809.9,0.003477214404607437
805.91,0.007631090773144264
801.91,0.007621543967402403
797.91,0.0042864456745849155
793.91,0.0012623521237128676
789.92,0.0020657102162475738
785.92,0.007192934674244034
781.92,0.013088608384849931
777.92,0.01460351788279901
773.93,-0.005008722076607075
769.93,-0.03156380781746737
765.93,0.0027326795188769015
761.93,-0.017944603403112547
757.94,-0.0986103027998424
753.94,-0.03479258749299374
749.94,-0.0030642458865994815
745.94,0.0015244344456967207
741.95,-0.010827004221305558
737.95,-0.01480748981331359
733.95,-0.10689343387033634
729.95,-0.1859325786547109
725.95,-0.17807720188004417
721.96,-0.035860667115800715
717.96,0.0013174619942926125
713.96,0.007306578277373299
709.96,0.06577665086086804
705.97,0.06509921146058872
701.97,-0.1072750166743236
697.97,-0.21870034083871873
693.97,-0.3751871969449616
689.98,-0.2959667269739311
685.98,-0.6516307454960503
681.98,-0.3934667585160576
677.98,-0.24140932630878575
673.99,0.06549972047599288
669.99,0.09928298482553063
665.99,0.0195391772245279
661.99,0.1788615517324653
658.0,0.16279139314459343
654.0,0.16116342545818713
650.0,-0.047829425583936803
