wavenumber,transmittance
4000.0,-0.007984866587977365
3996.0,-0.01059112415705684
3992.0,-0.013190273683668142
3988.01,-0.015943284452369436
3984.01,-0.01729095955658253
3980.01,-0.01604154984211989
3976.01,-0.013370181822366631
3972.02,-0.010769411889529346
3968.02,-0.008026351832994062
3964.02,-0.0049988058747444785
3960.02,-0.003393552726355207
3956.03,-0.004719623472132311
3952.03,-0.007737756204919176
3948.03,-0.009871950174897413
3944.03,-0.010674203539124103
3940.04,-0.01121478939872818
3936.04,-0.01155630091299735
3932.04,-0.011474897854952208
3928.04,-0.011931378954141064
3924.05,-0.013180905093172135
3920.05,-0.013178589394843964
3916.05,-0.011296999773422205
3912.05,-0.011379346773120736
3908.05,-0.017051932309835288
3904.06,-0.025582016259724824
3900.06,-0.02928838311493407
3896.06,-0.026831987424961783
3892.06,-0.024943203164388045
3888.07,-0.027283444138149985
3884.07,-0.030547824458807823
3880.07,-0.031161872033316287
3876.07,-0.03045562314722619
3872.08,-0.030278869842454367
3868.08,-0.029277598836198186
3864.08,-0.02636816774728804
3860.08,-0.023540821232182842
3856.09,-0.022776000548791045
3852.09,-0.023725252010512156
3848.09,-0.025618742485660262
3844.09,-0.028487707295471634
3840.1,-0.030840350285303388
3836.1,-0.029948000383944923
3832.1,-0.02745979649725281
3828.1,-0.02841010381029864
3824.11,-0.03236861603523537
3820.11,-0.03247458497878891
3816.11,-0.025361440094736166
3812.11,-0.018299468971637693
3808.11,-0.017392856700419373
3804.12,-0.01919598638999692
3800.12,-0.016550821302361494
3796.12,-0.01024087874947958
3792.12,-0.0069988487389400725
3788.13,-0.008438620792476119
3784.13,-0.0110072531931934
3780.13,-0.011893544149398855
3776.13,-0.01214135751618852
3772.14,-0.013484576788439031
3768.14,-0.015661661751768342
3764.14,-0.018318088218900797
3760.14,-0.022695227272928744
3756.15,-0.029815624290409612
3752.15,-0.0385130523753295
3748.15,-0.04588895049196375
3744.15,-0.04999508451677533
3740.16,-0.050537269599411266
3736.16,-0.04721265420296707
3732.16,-0.04088597573627174
3728.16,-0.03454513447686114
3724.16,-0.030884573514910647
3720.17,-0.030590570038976247
3716.17,-0.032415747849698306
3712.17,-0.03286964453674836
3708.17,-0.02820789499795421
3704.18,-0.020247816904789655
3700.18,-0.01596768427460284
3696.18,-0.019262244234336704
3692.18,-0.025709624437753893
3688.19,-0.026709146924970936
3684.19,-0.021575264581750166
3680.19,-0.01797222673835508
3676.19,-0.019083627157533995
3672.2,-0.018490108200080152
3668.2,-0.012118963721386492
3664.2,-0.008070576643215987
3660.2,-0.014995873674524856
3656.21,-0.03308628840782639
3652.21,-0.0514241002053393
3648.21,-0.05466245430879777
3644.21,-0.04463345682804869
3640.21,-0.035208097848135333
3636.22,-0.032151947115676587
3632.22,-0.03264548291022139
3628.22,-0.0318638575448977
3624.22,-0.028770655753422178
3620.23,-0.025832135252291628
3616.23,-0.02384592560587136
3612.23,-0.020961065915187725
3608.23,-0.016510909774438903
3604.24,-0.013250888649221412
3600.24,-0.014223061691065726
3596.24,-0.019477162213005356
3592.24,-0.025589515757674496
3588.25,-0.027672914971793923
3584.25,-0.024136317997063464
3580.25,-0.018699226628963395
3576.25,-0.01615267052046347
3572.26,-0.01805640159829131
3568.26,-0.021783624580029706
3564.26,-0.023186045126310773
3560.26,-0.021733812287385704
3556.26,-0.02035339839425539
3552.27,-0.020309917395179854
3548.27,-0.019740897868687393
3544.27,-0.017188685468568193
3540.27,-0.014629051499929564
3536.28,-0.014730494131161714
3532.28,-0.016814225195829653
3528.28,-0.01738889666444937
3524.28,-0.014025699236650584
3520.29,-0.008440796222132382
3516.29,-0.005000861057129873
3512.29,-0.006345777736953431
3508.29,-0.01066748053263177
3504.3,-0.012863584687929372
3500.3,-0.009596057193647398
3496.3,-0.0033999114347430153
3492.3,-1.4065475832214513e-05
3488.31,-0.00202938684853291
3484.31,-0.00675076467751224
3480.31,-0.009820138979576896
3476.31,-0.009752997163930372
3472.32,-0.008312541721074491
3468.32,-0.007670379340507594
3464.32,-0.008803755552328235
3460.32,-0.011473438166968206
3456.32,-0.014437355809571908
3452.33,-0.016295955213900145
3448.33,-0.01659944438866571
3444.33,-0.01574931727939438
3440.33,-0.013501743236954135
3436.34,-0.00940001832201516
3432.34,-0.004764241936119557
3428.34,-0.0023496001878234116
3424.34,-0.0032227696824843315
3420.35,-0.005250474990835134
3416.35,-0.005676143699709563
3412.35,-0.004085577139463385
3408.35,-0.0019312684317462324
3404.36,-0.0005231563989731933
3400.36,-0.0005953298607545305
3396.36,-0.0025567641829594475
3392.36,-0.005615453744178938
3388.37,-0.007598976942590939
3384.37,-0.007196517393048262
3380.37,-0.005598445434022714
3376.37,-0.004685030196700194
3372.37,-0.004836692018118018
3368.38,-0.005525617799373848
3364.38,-0.00654917429853155
3360.38,-0.007103318189791374
3356.38,-0.005384671276943299
3352.39,-0.0010933886007075
3348.39,0.0029841999609917756
3344.39,0.004204075171468764
3340.39,0.0034822397890085337
3336.4,0.0035973301071905647
3332.4,0.005139901486038125
3328.4,0.006219596466183957
3324.4,0.005650603468468022
3320.41,0.003943052392546307
3316.41,0.0016878675441505536
3312.41,-0.0005861809979156828
3308.41,-0.0012504486433354348
3304.42,0.0009055605210971131
3300.42,0.003791424780931592
3296.42,0.003624286535436779
3292.42,-0.0001489782657273439
3288.42,-0.004050461292751984
3284.43,-0.005462708023676339
3280.43,-0.005875676960352185
3276.43,-0.00752916489147004
3272.43,-0.009690997314377567
3268.44,-0.010495646139527083
3264.44,-0.010348261972757705
3260.44,-0.01088605099994025
3256.44,-0.011828244014520761
3252.45,-0.011471333421889208
3248.45,-0.009790854939295913
3244.45,-0.008569051756221776
3240.45,-0.008537994106508491
3236.46,-0.008452306299278432
3232.46,-0.007199716144908604
3228.46,-0.005421836085608384
3224.46,-0.004547309182509585
3220.47,-0.005078067049028202
3216.47,-0.006296322033414153
3212.47,-0.007262346816322738
3208.47,-0.007813617664413361
3204.47,-0.008558581875501858
3200.48,-0.009789328252379038
3196.48,-0.010667413260078426
3192.48,-0.010117289221150867
3188.48,-0.008578534163027212
3184.49,-0.007817336207768541
3180.49,-0.00864496254207922
3176.49,-0.009844961799712186
3172.49,-0.009973943362221772
3168.5,-0.009262907288696396
3164.5,-0.00874592080868703
3160.5,-0.00844762167320686
3156.5,-0.007705052078954012
3152.51,-0.006751784281871381
3148.51,-0.006574489910163522
3144.51,-0.0073817908569066785
3140.51,-0.008406547108816723
3136.52,-0.009254408450264465
3132.52,-0.010341453729312394
3128.52,-0.011640767798222092
3124.52,-0.012010669131810306
3120.53,-0.010571616388508108
3116.53,-0.008260034366817786
3112.53,-0.007129871453165388
3108.53,-0.00811748908221569
3104.53,-0.01002712570754174
3100.54,-0.010937149887575236
3096.54,-0.010261060522282968
3092.54,-0.008959164757417358
3088.54,-0.0078623190805013
3084.55,-0.006719729319947944
3080.55,-0.005067607653401349
3076.55,-0.0033526219931821442
3072.55,-0.0024470725929376796
3068.56,-0.0023507599102424864
3064.56,-0.0022911450633062123
3060.56,-0.002039331310731217
3056.56,-0.002263948812419571
3052.57,-0.0034718392874764845
3048.57,-0.005368406239404582
3044.57,-0.007431003237247338
3040.57,-0.009387939851976456
3036.58,-0.010708710264592115
3032.58,-0.010307310679275948
3028.58,-0.0075406457165820145
3024.58,-0.003203835228381288
3020.58,0.000994734467867367
3016.59,0.003767320970709115
3012.59,0.00509536942202736
3008.59,0.006140945148308416
3004.59,0.008229968179977842
3000.6,0.011647395589413967
2996.6,0.015521859823912243
2992.6,0.019049137090093086
2988.6,0.02247605967066594
2984.61,0.02644288988424353
2980.61,0.030618200488391055
2976.61,0.03370069552995069
2972.61,0.03472648874430732
2968.62,0.03386342585049164
2964.62,0.03201220804527759
2960.62,0.030069681705111713
2956.62,0.028641188024540857
2952.63,0.027952093809249887
2948.63,0.027716049616735728
2944.63,0.027428024936113824
2940.63,0.026945045438254125
2936.63,0.02645524735603341
2932.64,0.02580434074302077
2928.64,0.024435811334495086
2924.64,0.022251202797135435
2920.64,0.020026738056413092
2916.65,0.018469882207865357
2912.65,0.017295577639843816
2908.65,0.015909803092264592
2904.65,0.014281834762844454
2900.66,0.012715523281616459
2896.66,0.011420526440880673
2892.66,0.010531434601834918
2888.66,0.010143569134615133
2884.67,0.010074402905450586
2880.67,0.009868342691130152
2876.67,0.009278009633212913
2872.67,0.008441599686025078
2868.68,0.007481444814598243
2864.68,0.006389368011407437
2860.68,0.005496069527869445
2856.68,0.005456852345932024
2852.68,0.006368261036822476
2848.69,0.007370395888304005
2844.69,0.007673636659238359
2840.69,0.007393652410870281
2836.69,0.006862546319111604
2832.7,0.006059455825710786
2828.7,0.00518490949291895
2824.7,0.004905496725908438
2820.7,0.005358110817529059
2816.71,0.005686179895564357
2812.71,0.005306487763525233
2808.71,0.004954578275549753
2804.71,0.0054928796014629185
2800.72,0.006306645445949728
2796.72,0.006116647463013103
2792.72,0.004938756018530341
2788.72,0.004019732113731198
2784.73,0.003928306214551156
2780.73,0.003996692999312433
2776.73,0.00384586632007837
2772.73,0.00414458650541921
2768.74,0.005294469459227463
2764.74,0.006394684714609741
2760.74,0.0062846043166516746
2756.74,0.00502717936999658
2752.74,0.003733511149712822
2748.75,0.0032235398797701414
2744.75,0.0034391267352583653
2740.75,0.003916491125648961
2736.75,0.004307545295956217
2732.76,0.004508458234732317
2728.76,0.004611733757019782
2724.76,0.004785825577284483
2720.76,0.00509164857167207
2716.77,0.005476654939122557
2712.77,0.005921140931483932
2708.77,0.00641142702000653
2704.77,0.0067624649579297105
2700.78,0.00675270405654183
2696.78,0.0065568092941018005
2692.78,0.006716114374679371
2688.78,0.007479991843379389
2684.79,0.008450189052724802
2680.79,0.009146950727959815
2676.79,0.009723258437119882
2672.79,0.010768924189347854
2668.79,0.012462884859249852
2664.8,0.014235493938628172
2660.8,0.015369019147706064
2656.8,0.01571932573108417
2652.8,0.015728199438031793
2648.81,0.015853387872077386
2644.81,0.01606581633727655
2640.81,0.01597434654598795
2636.81,0.015327626150929285
2632.82,0.01434884626947372
2628.82,0.01373872080686688
2624.82,0.0143229033697795
2620.82,0.01633197125186754
2616.83,0.018873532164757796
2612.83,0.0203121350604619
2608.83,0.019729813107898446
2604.83,0.017565215117761174
2600.84,0.01432945453419972
2596.84,0.009885414616671317
2592.84,0.005033130133803339
2588.84,0.0025902560286169152
2584.84,0.004587377226883403
2580.85,0.00857706422060091
2576.85,0.01000351440015141
2572.85,0.007905078450183314
2568.85,0.005682227744361437
2564.86,0.006060097117077643
2560.86,0.007138684100201225
2556.86,0.0059193782796802975
2552.86,0.0028218621034183725
2548.87,0.0005473114526581219
2544.87,0.0007927252801825544
2540.87,0.0031999547404629163
2536.87,0.006808588964163597
2532.88,0.010034795027924755
2528.88,0.010557701665279874
2524.88,0.007082115124852231
2520.88,0.0011675148675684144
2516.89,-0.0040884391899538245
2512.89,-0.007160406828675023
2508.89,-0.008069104295589281
2504.89,-0.006282084910268109
2500.89,-0.0019371672966598391
2496.9,0.002281897351293848
2492.9,0.0034988981016596307
2488.9,0.0020455840449097925
2484.9,0.0010109523807680793
2480.91,0.0022971882280042374
2476.91,0.00522717006361674
2472.91,0.008612161186378982
2468.91,0.011977572227753338
2464.92,0.01499621988800273
2460.92,0.016814884780423124
2456.92,0.016563463822149176
2452.92,0.014600436487257066
2448.93,0.012182808259470905
2444.93,0.00994848402544952
2440.93,0.007807628789557361
2436.93,0.005312637817805084
2432.94,0.002596164273797755
2428.94,0.0007143529255849244
2424.94,0.0003464319921772964
2420.94,0.0007381207582191733
2416.95,0.0006746381934530643
2412.95,-0.00012086848135796704
2408.95,-0.0007126621518464236
2404.95,-0.00030823452389456413
2400.95,0.00047376134176378704
2396.96,0.0006529419290396375
2392.96,-6.340920310350662e-05
2388.96,-0.0011334120691803874
2384.96,-0.0014558768424999952
2380.97,-0.00011673217567681471
2376.97,0.002601906804489065
2372.97,0.004577442898645851
2368.97,0.0037833936901938555
2364.98,0.001424997841649284
2360.98,0.0009602937870739963
2356.98,0.0029670464815802393
2352.98,0.004619165090788681
2348.99,0.004304691902129808
2344.99,0.003143111006236687
2340.99,0.0033023684965238728
2336.99,0.00550411002839464
2333.0,0.008190144421059285
2329.0,0.00952466376771811
2325.0,0.008596817760504614
2321.0,0.0053167238446816395
2317.0,0.0009026349086003835
2313.01,-0.002101884236875122
2309.01,-0.0019394246854811427
2305.01,0.0006292318411508201
2301.01,0.0041170016450620935
2297.02,0.007600950833044648
2293.02,0.009350335835734705
2289.02,0.007559114910312227
2285.02,0.0028401249073662987
2281.03,-0.00017409245226097068
2277.03,0.0035214864662952167
2273.03,0.010539112457807092
2269.03,0.013206032701524213
2265.04,0.006091982571718059
2261.04,-0.010832868162753135
2257.04,-0.030142626575793724
2253.04,-0.044093027446655095
2249.05,-0.040192764266964304
2245.05,-0.017750400289652298
2241.05,0.008236498176668664
2237.05,0.02880874735459832
2233.05,0.042295640278118024
2229.06,0.04678882745784499
2225.06,0.03925469461575248
2221.06,0.02524438822733322
2217.06,0.014212389382438743
2213.07,0.0074940345860960815
2209.07,0.006543860261093711
2205.07,0.007152031812179849
2201.07,0.008785822809154699
2197.08,0.008720283276953147
2193.08,0.005990750908553242
2189.08,-0.005756368171493138
2185.08,-0.028750771535519172
2181.09,-0.04977808398411481
2177.09,-0.049373128461761784
2173.09,-0.018205404955836668
2169.09,0.02194357166889935
2165.1,0.04200444280012891
2161.1,0.05187417656467457
2157.1,0.07248419629727884
2153.1,0.09303242801029249
2149.11,0.08432583856128839
2145.11,0.05785712950041129
2141.11,0.03556077519022672
2137.11,0.020264097151521096
2133.11,0.009537838965767754
2129.12,0.0038777214644715218
2125.12,0.0023460685520834976
2121.12,0.0047917843811517745
2117.12,0.004210718322203808
2113.13,-0.008287528600109338
2109.13,-0.030164601286467085
2105.13,-0.04538038560676788
2101.13,-0.04229705609848869
2097.14,-0.0324915334819621
2093.14,-0.028772429583417206
2089.14,-0.027961130368337906
2085.14,-0.021815434791064216
2081.15,-0.011619327817205947
2077.15,0.0011569365927654764
2073.15,0.020708324394572115
2069.15,0.03758248992153572
2065.16,0.03486819660238235
2061.16,0.017123051438287056
2057.16,0.010781728774835143
2053.16,0.017037875777426
2049.16,0.02438010240246423
2045.17,0.05062318894328656
2041.17,0.0911790929957825
2037.17,0.09303120267844331
2033.17,0.07238830071562032
2029.18,0.034512547165162166
2025.18,-0.009315136380360398
2021.18,-0.01745933647602834
2017.18,-0.013746604684881735
2013.19,-0.029982120512160027
2009.19,-0.022606163428418733
2005.19,0.0030290313363480967
2001.19,0.024616645704879925
1997.2,0.03488606577201138
1993.2,0.027872070877563413
1989.2,0.00787948516238246
1985.2,-0.022874093828496426
1981.21,-0.05442348660083565
1977.21,-0.03748761074077414
1973.21,-0.012545026727172299
1969.21,0.0030706843398641877
1965.21,0.00878250597819352
1961.22,0.017418361322209953
1957.22,0.019807864364190318
1953.22,0.0034852071866326305
1949.22,-0.03215564368239001
1945.23,-0.051561511003596176
1941.23,-0.03873516548132526
1937.23,-0.02792261042326341
1933.23,-0.03689669084500556
1929.24,-0.042982087082307344
1925.24,-0.027670268299513724
1921.24,-0.009343523910349222
1917.24,-0.003068928688537481
1913.25,-0.0033892146660940807
1909.25,-0.003600870794463469
1905.25,-0.007680361013267648
1901.25,-0.017069585867637804
1897.26,-0.021815800521450268
1893.26,-0.015800681465988807
1889.26,-0.00813407757149584
1885.26,-0.005164524456947987
1881.26,-0.0041055742782708056
1877.27,-0.003722772046705362
1873.27,-0.008027015057713225
1869.27,-0.015511954859566239
1865.27,-0.016829845609301286
1861.28,-0.01052121050160824
1857.28,-0.007380198748919577
1853.28,-0.011977495803239497
1849.28,-0.016924994861722765
1845.29,-0.015378732877817401
1841.29,-0.013158215585264114
1837.29,-0.016061231597009184
1833.29,-0.019809820202937808
1829.3,-0.018387833814426224
1825.3,-0.014550362969195433
1821.3,-0.013142404530847194
1817.3,-0.013011898665307914
1813.31,-0.012087296231051111
1809.31,-0.012444905316368413
1805.31,-0.015992089456716506
1801.31,-0.020269165402568623
1797.32,-0.021327325995976858
1793.32,-0.019349939412248315
1789.32,-0.017029766700048715
1785.32,-0.015565326786087099
1781.32,-0.01588045521304635
1777.33,-0.01927025513868798
1773.33,-0.02386411609749767
1769.33,-0.024346513429873595
1765.33,-0.0204234894895005
1761.34,-0.01873507233510062
1757.34,-0.022873332228797037
1753.34,-0.028660918653546794
1749.34,-0.030421159380953994
1745.35,-0.03046992043670637
1741.35,-0.033263737589400814
1737.35,-0.03553800354948641
1733.35,-0.031895115166831293
1729.36,-0.02698118040913941
1725.36,-0.027684584966479568
1721.36,-0.03254744489273658
1717.36,-0.03439651417629669
1713.37,-0.032608126667057216
1709.37,-0.03383440425360232
1705.37,-0.038974258388323885
1701.37,-0.04001092654115077
1697.37,-0.03265633197684238
1693.38,-0.023880664565675433
1689.38,-0.017597992881110365
1685.38,-0.010622078815766767
1681.38,-0.001131102726725744
1677.39,0.00839967524014116
1673.39,0.01715989225111579
1669.39,0.02620866839679612
1665.39,0.03332020752668071
1661.4,0.03437862543019395
1657.4,0.028541847893374245
1653.4,0.02089981036371344
1649.4,0.018322230768985738
1645.41,0.019032032851344097
1641.41,0.01738898811061408
1637.41,0.012462671429926221
1633.41,0.006814225220023021
1629.42,0.0019404032065330548
1625.42,-0.0024856941216354136
1621.42,-0.005779990570455723
1617.42,-0.0063131707871137005
1613.42,-0.00420738768570271
1609.43,-0.001066117261828689
1605.43,0.0018752512180636172
1601.43,0.003975063215837356
1597.43,0.005502692292512674
1593.44,0.007707770750316201
1589.44,0.010821779169993207
1585.44,0.012992679499205226
1581.44,0.013332496355039525
1577.45,0.014446226098199552
1573.45,0.018595200508455423
1569.45,0.022692404611016306
1565.45,0.022752468125081395
1561.46,0.02096930071230546
1557.46,0.02362929289156393
1553.46,0.02839925774210711
1549.46,0.026671459303414052
1545.47,0.016489457029311136
1541.47,0.006373845945917236
1537.47,0.005544968415854834
1533.47,0.007354191428565443
1529.47,0.0029392135979699197
1525.48,-0.0061577268575444405
1521.48,-0.012276394849063621
1517.48,-0.01435955135586156
1513.48,-0.01727513529821839
1509.49,-0.019336277989717363
1505.49,-0.015133957237020254
1501.49,-0.007623955838817524
1497.49,-0.002917591882377779
1493.5,-9.889819692909807e-05
1489.5,0.005288765906267798
1485.5,0.01236072256140703
1481.5,0.0166431519820934
1477.51,0.017780301961388745
1473.51,0.019557172988281926
1469.51,0.02259706781341038
1465.51,0.02243490866799297
1461.52,0.01796444544340154
1457.52,0.01561333703638211
1453.52,0.02053647397809049
1449.52,0.02702510175794938
1445.53,0.028203762499243765
1441.53,0.023891656970998744
1437.53,0.018694615997024308
1433.53,0.015524978876152742
1429.53,0.012603473055769927
1425.54,0.008610253530481858
1421.54,0.005785803779990044
1417.54,0.00628487743087279
1413.54,0.008507127489252947
1409.55,0.009764235864065857
1405.55,0.009357195525910453
1401.55,0.008666220259915328
1397.55,0.009955502724035538
1393.56,0.014242519863900606
1389.56,0.019468995205708634
1385.56,0.022005366595315608
1381.56,0.020245287801728656
1377.57,0.016115645494516294
1373.57,0.01305865607189748
1369.57,0.01256944432690757
1365.57,0.01371642488796277
1361.58,0.01527493458815794
1357.58,0.016426970525527374
1353.58,0.01605661428333708
1349.58,0.013301549510839172
1345.58,0.009145242149667727
1341.59,0.0064532008675838096
1337.59,0.0070648843570928176
1333.59,0.009540875551755985
1329.59,0.01122476896997155
1325.6,0.011200791385188109
1321.6,0.010578015854833277
1317.6,0.010809722836527265
1313.6,0.012378629676762093
1309.61,0.014919145935614275
1305.61,0.017962489598164526
1301.61,0.021239108324428827
1297.61,0.024481538346427537
1293.62,0.027364352838514083
1289.62,0.029822480372885093
1285.62,0.032180651841663986
1281.62,0.03475245496518141
1277.63,0.03741735451732155
1273.63,0.03974502551419773
1269.63,0.0414320399396658
1265.63,0.0424863038822827
1261.63,0.04315866661376951
1257.64,0.0438502384443371
1253.64,0.04503599195986786
1249.64,0.047068151034993476
1245.64,0.04977573516397839
1241.65,0.05224764149301232
1237.65,0.05330463413731425
1233.65,0.052537574686561894
1229.65,0.0507653682596825
1225.66,0.048606635493034345
1221.66,0.04353807558104583
1217.66,0.03186617075400955
1213.66,0.029600581193579223
1209.67,0.03657294158708746
1205.67,0.03846655768005186
1201.67,0.0370099314284707
1197.67,0.033661204322780164
1193.68,0.029013432261286026
1189.68,0.02456062768809346
1185.68,0.021984717724013114
1181.68,0.021728845210749297
1177.68,0.02302443146205882
1173.69,0.025026270374812587
1169.69,0.027177756764137022
1165.69,0.028647151822979805
1161.69,0.02851591880957225
1157.7,0.02685506890112651
1153.7,0.0248109997094823
1149.7,0.023249482299968538
1145.7,0.021789988053160216
1141.71,0.01952227634161259
1137.71,0.016326003239786942
1133.71,0.013129251503803934
1129.71,0.011068280319044728
1125.72,0.010667568592873596
1121.72,0.011654115718426079
1117.72,0.013204415634167306
1113.72,0.014516682593602243
1109.73,0.015493183923033248
1105.73,0.01682057424240784
1101.73,0.019172370721587662
1097.73,0.022293240296408157
1093.74,0.02495048614180398
1089.74,0.025886632320214653
1085.74,0.025089955289723395
1081.74,0.024156349246914822
1077.74,0.024925791543825484
1073.75,0.02757300319542092
1069.75,0.03024177778451183
1065.75,0.030931615821804002
1061.75,0.029543342772081784
1057.76,0.0275732827574141
1053.76,0.026394875437036405
1049.76,0.02642028869280924
1045.76,0.027402822534900582
1041.77,0.028708195131821563
1037.77,0.029394887534964432
1033.77,0.028898342022347978
1029.77,0.02770859755926136
1025.78,0.026699343270354902
1021.78,0.02591114233050139
1017.78,0.024739902556313437
1013.78,0.023169611930964906
1009.79,0.021800262016744537
1005.79,0.020605237034705876
1001.79,0.018762379570065116
997.79,0.016053324920728574
993.79,0.013520391467853202
989.8,0.012222522100761265
985.8,0.011956279744952406
981.8,0.011768924279609223
977.8,0.011167892666742483
973.81,0.010239616959154547
969.81,0.009031487834616582
965.81,0.007303346914025623
961.81,0.004575574536237163
957.82,0.0002753900040001894
953.82,-0.005397383229599678
949.82,-0.010413018144039426
945.82,-0.011798543242832336
941.83,-0.008620437908086684
937.83,-0.0032409027716810354
933.83,0.0013069438297869662
929.83,0.004120074744669279
925.84,0.005858102995082
921.84,0.0067047177700067795
917.84,0.006452380993449858
913.84,0.005696254269310221
909.84,0.005398095291073515
905.85,0.005667855805385142
901.85,0.006142903970772821
897.85,0.006970882198924541
893.85,0.008055771785120487
889.86,0.008206117012551353
885.86,0.006535571477899592
881.86,0.004188949377206827
877.86,0.0030593219173844968
873.87,0.003151547011564103
869.87,0.003000037136551212
865.87,0.002202910478175356
861.87,0.0017009415056772718
857.88,0.0019677153384184617
853.88,0.0030125869563309877
849.88,0.0053753538150380815
845.88,0.008775266927589072
841.89,0.0107221262881944
837.89,0.009294726353440478
833.89,0.00597760671447637
829.89,0.0032242471527120543
825.89,0.0010171170445712127
821.9,-0.0014798847625887152
817.9,-0.0017033679832332838
813.9,0.0038603496130879544
809.9,0.012627363590910531
805.91,0.01809942658736491
801.91,0.01796886971524153
797.91,0.01616090920757718
793.91,0.017770952617410102
789.92,0.026079138452252765
785.92,0.04311171156190147
781.92,0.06537466690792332
777.92,0.08203945249834044
773.93,0.07392338941334742
769.93,0.03838942597952533
765.93,-0.011979882069321546
761.93,-0.07409317011251959
757.94,-0.12151800117588396
753.94,0.02441963266100855
749.94,0.010879765302992617
745.94,-0.06106024886132966
741.95,-0.09536272389910605
737.95,-0.08373238479530942
733.95,-0.11967169862499683
729.95,-0.13504520721338575
725.95,-0.22554981504560256
721.96,-0.09356596355923003
717.96,-0.05394750190106801
713.96,-0.06022379695607355
709.96,-0.08774545808647072
705.97,-0.1454393070067999
701.97,-0.28258125910124365
697.97,-0.2976735765418963
693.97,-0.44086428139096073
689.98,-0.29183995784787725
685.98,-0.6125609780971439
681.98,-0.3726170466190779
677.98,-0.21973335300806912
673.99,0.09012831136786763
669.99,0.1546204768272202
665.99,0.0904869766961856
661.99,0.2518860139160251
658.0,0.22325128118594267
654.0,0.20600238551876038
650.0,0.02039805813189491
