wavenumber,transmittance
4000.0,-0.009968762957703749
3996.0,-0.010199207243523896
3992.0,-0.010050329855039666
3988.01,-0.010913283361742031
3984.01,-0.011744891399796585
3980.01,-0.010843438958042911
3976.01,-0.008736023722779167
3972.02,-0.0069143898244517984
3968.02,-0.005362150371308092
3964.02,-0.0035790727036518555
3960.02,-0.002641917492236792
3956.03,-0.003906162614340414
3952.03,-0.006502930800970678
3948.03,-0.008294839211315692
3944.03,-0.009095627875435393
3940.04,-0.010183874703236322
3936.04,-0.011706472987417617
3932.04,-0.013132377907434274
3928.04,-0.014975065542681097
3924.05,-0.017410187828063955
3920.05,-0.018536428864666096
3916.05,-0.01756567348923132
3912.05,-0.017891662384406835
3908.05,-0.022714354099364526
3904.06,-0.029122911974103632
3900.06,-0.029986083466980867
3896.06,-0.025065339759603313
3892.06,-0.021695319128641748
3888.07,-0.023571442146392764
3884.07,-0.02719907506040918
3880.07,-0.028691906221515632
3876.07,-0.029319839651731353
3872.08,-0.031053105967910256
3868.08,-0.032040023689937434
3864.08,-0.03016855719845155
3860.08,-0.027089234250480095
3856.09,-0.025411813175670366
3852.09,-0.025731414332907397
3848.09,-0.027760100836226508
3844.09,-0.03144613846659091
3840.1,-0.0350854144657107
3836.1,-0.03521608222374753
3832.1,-0.03232224847583858
3828.1,-0.031391940432341746
3824.11,-0.03331956529674854
3820.11,-0.03290863407476231
3816.11,-0.027206253001912227
3812.11,-0.021860762875098923
3808.11,-0.0214623133282023
3804.12,-0.02240039734834651
3800.12,-0.018450906557751102
3796.12,-0.011601563550995944
3792.12,-0.00882888718187871
3788.13,-0.011282310908777807
3784.13,-0.014851383598997672
3780.13,-0.01629705667839135
3776.13,-0.016608635274098563
3772.14,-0.017682144268656025
3768.14,-0.019332504349359857
3764.14,-0.021337295570262357
3760.14,-0.02536088409039304
3756.15,-0.032880100384062486
3752.15,-0.04263415264714249
3748.15,-0.050821318280867084
3744.15,-0.05482810839824366
3740.16,-0.054911410962754134
3736.16,-0.05155603483716021
3732.16,-0.04562022434243837
3728.16,-0.039411473009021696
3724.16,-0.03512361837836873
3720.17,-0.03354929750480261
3716.17,-0.033944285297086554
3712.17,-0.03342831884173954
3708.17,-0.02851700204756842
3704.18,-0.02059067754082638
3700.18,-0.01598205895981021
3696.18,-0.01856947144896902
3692.18,-0.024704947560236713
3688.19,-0.026514486922978864
3684.19,-0.022977418936662348
3680.19,-0.02077925084842533
3676.19,-0.022488054096137036
3672.2,-0.02166031429459129
3668.2,-0.014615881688561856
3664.2,-0.009656687362471269
3660.2,-0.01500365320317573
3656.21,-0.029988977236629112
3652.21,-0.0433943570354715
3648.21,-0.041817325418476124
3644.21,-0.029778591973638434
3640.21,-0.021383368019736032
3636.22,-0.021368242631966954
3632.22,-0.026163733837853143
3628.22,-0.030150788597389268
3624.22,-0.03125933390486656
3620.23,-0.031278622978714095
3616.23,-0.030802511731277418
3612.23,-0.02797069725349224
3608.23,-0.022508236794004162
3604.24,-0.0179435784125078
3600.24,-0.017720962568839368
3596.24,-0.02166591499864253
3592.24,-0.026104216210694222
3588.25,-0.026522624051617323
3584.25,-0.02207059070788096
3580.25,-0.016559810068780132
3576.25,-0.01431429796765068
3572.26,-0.01668129613199762
3568.26,-0.021208694752970957
3564.26,-0.023624286228861625
3560.26,-0.022599413381844964
3556.26,-0.02050008105880794
3552.27,-0.018988603417631197
3548.27,-0.017217764421984284
3544.27,-0.014384911873093245
3540.27,-0.012000575732526593
3536.28,-0.011827028027609498
3532.28,-0.012990648637823638
3528.28,-0.012662945945428127
3524.28,-0.00918317205994405
3520.29,-0.004346778872671214
3516.29,-0.001922674359079262
3512.29,-0.003944335999366635
3508.29,-0.008499628123161292
3504.3,-0.010801805506296391
3500.3,-0.0078037363170238416
3496.3,-0.002011499556436643
3492.3,0.0010830614861063164
3488.31,-0.0009954304728311651
3484.31,-0.005683110173930738
3480.31,-0.008782508744058351
3476.31,-0.008814399794154236
3472.32,-0.0074241593797053865
3468.32,-0.006698044212229137
3464.32,-0.007707186980051064
3460.32,-0.010380457229710052
3456.32,-0.013546535037743883
3452.33,-0.015638978172425
3448.33,-0.01591552354738085
3444.33,-0.014772671618422713
3440.33,-0.012443558689702375
3436.34,-0.008933351194658115
3432.34,-0.005400500682882869
3428.34,-0.003889081609790431
3424.34,-0.00498382462516617
3420.35,-0.006770791671822052
3416.35,-0.006933274908367415
3412.35,-0.005045249475349565
3408.35,-0.0023124783020406423
3404.36,-0.0002497787280866994
3400.36,-0.0002476928560993536
3396.36,-0.0029732336347523154
3392.36,-0.007054453884210256
3388.37,-0.0095753240424202
3384.37,-0.009091969246178486
3380.37,-0.007234375510153327
3376.37,-0.0063351990342742515
3372.37,-0.006893272737967091
3368.38,-0.008336131397839801
3364.38,-0.010388156130500413
3360.38,-0.01206610288801395
3356.38,-0.011320186719967634
3352.39,-0.007739824452360152
3348.39,-0.004246625213197347
3344.39,-0.003722049496577654
3340.39,-0.005379471963281351
3336.4,-0.006454050266338428
3332.4,-0.006246798648997812
3328.4,-0.006375215526623795
3324.4,-0.00766011561840273
3320.41,-0.009364686149703535
3316.41,-0.01103751918096476
3312.41,-0.012599799296248559
3308.41,-0.012762615961962421
3304.42,-0.010321189514242428
3300.42,-0.007207696755103566
3296.42,-0.007058610497241036
3292.42,-0.01036785763813904
3288.42,-0.013691152482240685
3284.43,-0.014524776881013376
3280.43,-0.014458742542999859
3276.43,-0.015720592895124074
3272.43,-0.01754261093734006
3268.44,-0.01810399868185062
3264.44,-0.017831965318323643
3260.44,-0.018178927421802986
3256.44,-0.018585372554083858
3252.45,-0.01738962734797854
3248.45,-0.015038813039501088
3244.45,-0.013731418417573842
3240.45,-0.014114790281609287
3236.46,-0.014525980239619561
3232.46,-0.013613688958761788
3228.46,-0.012062248208350989
3224.46,-0.011287703872856755
3220.47,-0.011599096552424146
3216.47,-0.012254652010066315
3212.47,-0.012630310011296855
3208.47,-0.012901295119365622
3204.47,-0.0136453113631699
3200.48,-0.01481215952413637
3196.48,-0.015288147657557642
3192.48,-0.014042185073417621
3188.48,-0.01178781116794677
3184.49,-0.010536302955471987
3180.49,-0.011123349103907765
3176.49,-0.012190161327578298
3172.49,-0.012197061740102485
3168.5,-0.011456290571761132
3164.5,-0.011115930440566218
3160.5,-0.01111098682677833
3156.5,-0.010537049103771665
3152.51,-0.0095687551110683
3148.51,-0.009388892182603463
3144.51,-0.010378689177123574
3140.51,-0.011670798872870865
3136.52,-0.012676873623042373
3132.52,-0.0138387032061961
3128.52,-0.015272536478429525
3124.52,-0.015856801838906753
3120.53,-0.014639716460739775
3116.53,-0.012548683962099409
3112.53,-0.011679812761357242
3108.53,-0.012849328489061243
3104.53,-0.01461763694628428
3100.54,-0.015064362042891065
3096.54,-0.01396283240497342
3092.54,-0.012633385170223055
3088.54,-0.011890686067567867
3084.55,-0.011142655932204221
3080.55,-0.009619607282712356
3076.55,-0.0077767716127473165
3072.55,-0.006777154746989429
3068.56,-0.006903522407744018
3064.56,-0.007362213356476306
3060.56,-0.007612070397406929
3056.56,-0.008113796563517246
3052.57,-0.009540646150894644
3048.57,-0.011864604703474162
3044.57,-0.014475786559243444
3040.57,-0.01670891222610314
3036.58,-0.017870248908003275
3032.58,-0.01724731145963465
3028.58,-0.014824695233234361
3024.58,-0.011852518317763142
3020.58,-0.01010787663649218
3016.59,-0.010430886180165105
3012.59,-0.012088098614087286
3008.59,-0.013466764599063652
3004.59,-0.013291368659149476
3000.6,-0.011522480725026072
2996.6,-0.00922168718198783
2992.6,-0.0073897528247966575
2988.6,-0.006077965216235371
2984.61,-0.004954465120752129
2980.61,-0.004337678296163605
2976.61,-0.004933216385659613
2972.61,-0.00674172668844366
2968.62,-0.00885672234489215
2964.62,-0.010422901828386861
2960.62,-0.011275900045343998
2956.62,-0.01149041404878878
2952.63,-0.01097029764614042
2948.63,-0.009831344016307444
2944.63,-0.008526079018006616
2940.63,-0.007252280403480485
2936.63,-0.005825714255882141
2932.64,-0.004413816417791348
2928.64,-0.0036703451787921428
2924.64,-0.0037859055845188942
2920.64,-0.004018209549835422
2916.65,-0.0037266491829633687
2912.65,-0.0033041521112954636
2908.65,-0.0033725844878251914
2904.65,-0.003885758190696406
2900.66,-0.004475428794026733
2896.66,-0.004947665471072973
2892.66,-0.005206318488079939
2888.66,-0.005128646614750244
2884.67,-0.004823517582151937
2880.67,-0.004694234115637734
2876.67,-0.004939713935774553
2872.67,-0.00534245957176155
2868.68,-0.005702926896176415
2864.68,-0.006034469939031891
2860.68,-0.0061022083123181
2856.68,-0.0053803325508143904
2852.68,-0.003895139655978727
2848.69,-0.0025931709223207013
2844.69,-0.0022637762094382397
2840.69,-0.0026591364758673432
2836.69,-0.0032452328483982065
2832.7,-0.0039344526086416524
2828.7,-0.004608262687689015
2824.7,-0.004762044961203646
2820.7,-0.004304912834358304
2816.71,-0.004000998018180026
2812.71,-0.004373523907884074
2808.71,-0.004749055247694995
2804.71,-0.004331854612923094
2800.72,-0.0037063304892072154
2796.72,-0.004089588948760263
2792.72,-0.005441376280759544
2788.72,-0.006488239624519324
2784.73,-0.006619811364018875
2780.73,-0.006540805810647795
2776.73,-0.006770147295938186
2772.73,-0.0067172114909439876
2768.74,-0.005853446613832641
2764.74,-0.004861643010389165
2760.74,-0.004825874830794963
2756.74,-0.005803369775803623
2752.74,-0.006855537398514612
2748.75,-0.0072573046059221675
2744.75,-0.007098870932001863
2740.75,-0.006853271285611807
2736.75,-0.0068287384208056
2732.76,-0.007041016139550923
2728.76,-0.007319695561037296
2724.76,-0.007475859297706462
2720.76,-0.007480098089918159
2716.77,-0.007420611932060754
2712.77,-0.007294767730374465
2708.77,-0.0070221732975827315
2704.77,-0.006720949820852932
2700.78,-0.006710412106696482
2696.78,-0.007072206862882338
2692.78,-0.007458938225846949
2688.78,-0.007543844903196753
2684.79,-0.00748656956506792
2680.79,-0.0076642898647695116
2676.79,-0.00803499194779047
2672.79,-0.008085212921184446
2668.79,-0.007461205366023278
2664.8,-0.006459216112101857
2660.8,-0.005750708259340405
2656.8,-0.005695813208675508
2652.8,-0.006024947609414815
2648.81,-0.006173721193403213
2644.81,-0.005954624940889739
2640.81,-0.0057731007833028624
2636.81,-0.006083347051308282
2632.82,-0.006730337092502192
2628.82,-0.006958446126934325
2624.82,-0.006094100183838403
2620.82,-0.004173509511802536
2616.83,-0.002007641533522151
2612.83,-0.0007898473498373759
2608.83,-0.001264931496880159
2604.83,-0.0033026520680314994
2600.84,-0.006499933117304549
2596.84,-0.010605537325176191
2592.84,-0.014698471058037697
2588.84,-0.01655768948389265
2584.84,-0.01460494017080734
2580.85,-0.01072399531352869
2576.85,-0.008537357967532126
2572.85,-0.00898922995310169
2568.85,-0.009548542553148109
2564.86,-0.008263132499830557
2560.86,-0.006921020136928153
2556.86,-0.007921942145558284
2552.86,-0.010536709135673256
2548.87,-0.012130789475940122
2544.87,-0.011241524766601249
2540.87,-0.00831668653054733
2536.87,-0.00424352734241386
2532.88,-0.0006070807555414136
2528.88,7.799191819714453e-05
2524.88,-0.003584166136564714
2520.88,-0.009655930292702637
2516.89,-0.014456605343037287
2512.89,-0.016650310726365365
2508.89,-0.017260591434103256
2504.89,-0.016441967065080974
2500.89,-0.013917407233653794
2496.9,-0.011566020849433404
2492.9,-0.012091282668025139
2488.9,-0.015368266915114805
2484.9,-0.018185705268032253
2480.91,-0.018297908681608376
2476.91,-0.016119298621980197
2472.91,-0.012588699480254133
2468.91,-0.008047384121801743
2464.92,-0.0032515082694131725
2460.92,0.0003761169670496063
2456.92,0.0018715020458926184
2452.92,0.001759610041546615
2448.93,0.0010345590614630681
2444.93,-0.0003029485684362312
2440.93,-0.0024791399924801
2436.93,-0.00502055367663163
2432.94,-0.007032377431622059
2428.94,-0.007971582909301526
2424.94,-0.007819706147859498
2420.94,-0.0070346394979077555
2416.95,-0.0061811765422114025
2412.95,-0.0056407424957336215
2408.95,-0.005306461967232666
2404.95,-0.0047666940007392924
2400.95,-0.004184961012924111
2396.96,-0.004323457287244842
2392.96,-0.005629989634125858
2388.96,-0.00728641969323003
2384.96,-0.007579028651695064
2380.97,-0.005477887760173713
2376.97,-0.0017494848412129265
2372.97,0.001027704549568285
2368.97,0.0007984820552137039
2364.98,-0.0012460168802104535
2360.98,-0.0019521021154348863
2356.98,-0.0005995150910575154
2352.98,0.0006998486272215025
2348.99,0.0006728175667359503
2344.99,0.0001816924147514487
2340.99,0.0009073757277628003
2336.99,0.00332913100078675
2333.0,0.006120596447784648
2329.0,0.007830818929367775
2325.0,0.007780402405661092
2321.0,0.005852205258208358
2317.0,0.002924483935807119
2313.01,0.0012040357870761673
2309.01,0.002680876252750544
2305.01,0.0071161055156775364
2301.01,0.012873524199161136
2297.02,0.01835708430016217
2293.02,0.02211393785560461
2289.02,0.023976415430672138
2285.02,0.025517895400927245
2281.03,0.029720832032018973
2277.03,0.039206022111228096
2273.03,0.051062080396012725
2269.03,0.05876693152460366
2265.04,0.055450118159237546
2261.04,0.039673626457671474
2257.04,0.019157917251038457
2253.04,0.0020865501099593
2249.05,0.000790712244110453
2245.05,0.015955985375143308
2241.05,0.032680001015570004
2237.05,0.043807448443008074
2233.05,0.047561425818957226
2229.06,0.0443642538463287
2225.06,0.03353937135812818
2221.06,0.019321534494201997
2217.06,0.010428363314059778
2213.07,0.00943473096783938
2209.07,0.014807311857747505
2205.07,0.020567833451839226
2201.07,0.02592925267881665
2197.08,0.028964286618171343
2193.08,0.029392397649832397
2189.08,0.01993254612643211
2185.08,-0.004212536552269554
2181.09,-0.031151522475065713
2177.09,-0.0434310574441425
2173.09,-0.026289308587478195
2169.09,0.002116169285511088
2165.1,0.01838964619801023
2161.1,0.02888418774572129
2157.1,0.04852777167776556
2153.1,0.06568417319297096
2149.11,0.05773230700530677
2145.11,0.03484595363561249
2141.11,0.01713461159488841
2137.11,0.008667678825113007
2133.11,0.004250700267718045
2129.12,0.002899055425857465
2125.12,0.0036668696918765644
2121.12,0.006338484909245438
2117.12,0.004880902675885753
2113.13,-0.0076144362698684805
2109.13,-0.028839540577662266
2105.13,-0.044859335741831693
2101.13,-0.04310303306442087
2097.14,-0.03306867336371077
2093.14,-0.028163484429274126
2089.14,-0.027311005363800378
2085.14,-0.021620894842737725
2081.15,-0.009862257371683229
2077.15,0.005412208584813012
2073.15,0.02275620109574007
2069.15,0.032308902048596946
2065.16,0.026340375354958416
2061.16,0.01267732991209933
2057.16,0.010222667988745278
2053.16,0.015525524748360334
2049.16,0.018848500722302146
2045.17,0.038851659992958795
2041.17,0.07189054742024115
2037.17,0.07329670915975732
2033.17,0.060702763346452374
2029.18,0.03178180816456131
2025.18,-0.0010883823622360282
2021.18,0.0026473093317059167
2017.18,0.014068328310356776
2013.19,0.004279923710754443
2009.19,0.01005044829457374
2005.19,0.0312838520856244
2001.19,0.048739377028019185
1997.2,0.06181172662366913
1993.2,0.05306591006231365
1989.2,0.02252091013455151
1985.2,-0.022035848656617982
1981.21,-0.05945895582849583
1977.21,-0.040916699938819176
1973.21,-0.01941879643304482
1969.21,-0.0073426862933945935
1965.21,-0.0023720118708262933
1961.22,0.0017369713963501163
1957.22,0.0011274679940580217
1953.22,-0.015100105076281334
1949.22,-0.04316468779241166
1945.23,-0.05327210182281711
1941.23,-0.03708154405119386
1937.23,-0.025974446709554445
1933.23,-0.033313203519358806
1929.24,-0.039266031039457194
1925.24,-0.026803467610680178
1921.24,-0.01012257533405476
1917.24,-0.0028119421998614533
1913.25,-0.002449324596056078
1909.25,-0.003997307273763359
1905.25,-0.008952467512373953
1901.25,-0.01766010648680207
1897.26,-0.022355022000372114
1893.26,-0.01794116865974109
1889.26,-0.011303060907300287
1885.26,-0.007952171025806929
1881.26,-0.006642283164761292
1877.27,-0.006598572322630244
1873.27,-0.010276741421413957
1869.27,-0.016157924529182698
1865.27,-0.017227044760715807
1861.28,-0.012502377430098516
1857.28,-0.010263847337087944
1853.28,-0.01409843026307776
1849.28,-0.018292301041293563
1845.29,-0.017326779997623623
1841.29,-0.01574814186543931
1837.29,-0.018372595337625024
1833.29,-0.021777571749362706
1829.3,-0.0205543791850836
1825.3,-0.016637017631100343
1821.3,-0.014660527177167777
1817.3,-0.014560892395680742
1813.31,-0.014566001079948257
1809.31,-0.015692734848856794
1805.31,-0.019298039349271896
1801.31,-0.023501599819769785
1797.32,-0.02478188609574232
1793.32,-0.022827186933125004
1789.32,-0.020109969401047496
1785.32,-0.018462352914127143
1781.32,-0.01907026016825069
1777.33,-0.02262966331695978
1773.33,-0.027089511541998616
1769.33,-0.027878517178593964
1765.33,-0.02480512571508546
1761.34,-0.02351999573790878
1757.34,-0.027266621852255084
1753.34,-0.03274495997321322
1749.34,-0.034900822367691105
1745.35,-0.035219234274693284
1741.35,-0.0375118435564792
1737.35,-0.03937288457516405
1733.35,-0.03627758130184794
1729.36,-0.03202252157984531
1725.36,-0.03270534793670873
1721.36,-0.03751591735151192
1717.36,-0.04011195356723127
1713.37,-0.03920073003806912
1709.37,-0.04062962695034136
1705.37,-0.04616858485471038
1701.37,-0.049319013325275406
1697.37,-0.045535526925942704
1693.38,-0.040718604510819004
1689.38,-0.03942869648468063
1685.38,-0.03914367523563933
1681.38,-0.03673126825666757
1677.39,-0.03346106423572172
1673.39,-0.030752623875980642
1669.39,-0.02751112023236922
1665.39,-0.02447452611179516
1661.4,-0.02536596227474272
1657.4,-0.031869918475111836
1653.4,-0.03883459352110895
1649.4,-0.03840538035423047
1645.41,-0.03265764107523374
1641.41,-0.02811699658523125
1637.41,-0.02618243092279126
1633.41,-0.02524240021512955
1629.42,-0.024877555165703755
1625.42,-0.025461787995473176
1621.42,-0.02573831482653293
1617.42,-0.023812208632600484
1613.42,-0.019999844794354557
1609.43,-0.016061417611946308
1605.43,-0.012999207106081274
1601.43,-0.011083512492689962
1597.43,-0.010198331837354531
1593.44,-0.009761791277497107
1589.44,-0.009663607560145622
1585.44,-0.011166126350729833
1581.44,-0.015305580106867799
1577.45,-0.020530778187626414
1573.45,-0.02423237083239124
1569.45,-0.02737006577600559
1565.45,-0.032974746215937295
1561.46,-0.03941933437362333
1557.46,-0.04005061877111216
1553.46,-0.03601503099990924
1549.46,-0.0360279945945574
1545.47,-0.04239231381966516
1541.47,-0.047101343116532635
1537.47,-0.04308458002099747
1533.47,-0.0381561636557795
1529.47,-0.04002339247809199
1525.48,-0.04623524715588561
1521.48,-0.04956007054643146
1517.48,-0.04936829726356627
1513.48,-0.049724267226085306
1509.49,-0.048372522443778376
1505.49,-0.040832218959183535
1501.49,-0.031017997716994004
1497.49,-0.024796573801154305
1493.5,-0.021234159401506164
1489.5,-0.016578591808038078
1485.5,-0.011805083934717825
1481.5,-0.010734312107603242
1477.51,-0.013220366438629894
1473.51,-0.01459689992704439
1469.51,-0.012957624291502268
1465.51,-0.012774133701440142
1461.52,-0.016344345547977847
1457.52,-0.018244981043469624
1453.52,-0.013204510295331567
1449.52,-0.0060960659154369115
1445.53,-0.003451828878365787
1441.53,-0.005633494629970828
1437.53,-0.00836384158276654
1433.53,-0.008902079577624351
1429.53,-0.009061160505803224
1425.54,-0.010430113213158919
1421.54,-0.01118743862713778
1417.54,-0.009215836805510559
1413.54,-0.006075476659935346
1409.55,-0.004994364545072481
1405.55,-0.007166339348145097
1401.55,-0.010568253649427276
1397.55,-0.011465842764000447
1393.56,-0.008151888096986235
1389.56,-0.0031064625618095684
1385.56,1.9363481560383256e-05
1381.56,0.0003594510334574627
1377.57,-0.0003284383992027337
1373.57,-0.0006099121135644051
1369.57,-0.0009091025397189277
1365.57,-0.0016212608033978546
1361.58,-0.0015216968938392174
1357.58,0.00018561996206959558
1353.58,0.001683003160669997
1349.58,0.0005649109222044917
1345.58,-0.0028644398622325005
1341.59,-0.0054583614364443304
1337.59,-0.004913793384250714
1333.59,-0.0025601617339768325
1329.59,-0.001141894238931105
1325.6,-0.0015883366212984668
1321.6,-0.0027411250560858483
1317.6,-0.003119977378313408
1313.6,-0.0022811113424132945
1309.61,-0.0007946667376301786
1305.61,0.0005019335499985497
1301.61,0.0011447402962486454
1297.61,0.0012279683829848065
1293.62,0.0011433056020606902
1289.62,0.0011819445991460044
1285.62,0.0014497672465381972
1281.62,0.0019632319127219564
1277.63,0.0024700266684902633
1273.63,0.0023418910484067565
1269.63,0.0011334285102375177
1265.63,-0.000690743371339779
1261.63,-0.002042026771162671
1257.64,-0.002441475013886883
1253.64,-0.00225959113676074
1249.64,-0.0015654457560177748
1245.64,0.0003957221564908353
1241.65,0.004172052883529245
1237.65,0.008928550850516997
1233.65,0.012753364193231947
1229.65,0.014271675342915319
1225.66,0.013635504506133156
1221.66,0.012050388805430245
1217.66,0.011431041312473855
1213.66,0.0126192052936136
1209.67,0.013169947320129494
1205.67,0.013017405827176864
1201.67,0.012411192814549887
1197.67,0.011121911966536793
1193.68,0.009153345325649653
1189.68,0.007085878225501413
1185.68,0.005742146289590196
1181.68,0.005554236195574727
1177.68,0.006316080319163725
1173.69,0.007517918291462845
1169.69,0.008821548063572118
1165.69,0.010203880969565343
1161.69,0.011739998246062894
1157.7,0.013262848384012288
1153.7,0.01425165860531364
1149.7,0.01409642337522797
1145.7,0.01250722613505624
1141.71,0.009693109670866284
1137.71,0.006298320094400289
1133.71,0.003324149402798675
1129.71,0.0018514865411067838
1125.72,0.0024134127948308437
1121.72,0.004520509089550324
1117.72,0.006971257476812799
1113.72,0.00884226230992832
1109.73,0.010147881266563328
1105.73,0.01153486328174792
1101.73,0.013584747659956643
1097.73,0.016334142535120125
1093.74,0.019005376853209976
1089.74,0.020183575697558468
1085.74,0.019023630713275574
1081.74,0.016597423618943685
1077.74,0.015179778910567581
1073.75,0.015850863117747162
1069.75,0.017378576540360968
1065.75,0.017874869604913295
1061.75,0.017046698350172154
1057.76,0.01600019844380537
1053.76,0.015437027918735259
1049.76,0.015030315668140965
1045.76,0.014340536311579702
1041.77,0.013448085947954335
1037.77,0.012594924307810982
1033.77,0.011856623395668921
1029.77,0.011282695974735461
1025.78,0.010846739319075118
1021.78,0.010247786060487981
1017.78,0.009356441416318237
1013.78,0.008771588043548745
1009.79,0.009170461775537011
1005.79,0.010111688987441242
1001.79,0.010313606995806825
997.79,0.009287667095539106
993.79,0.007933640088305785
989.8,0.007258388094770654
985.8,0.007157123935320756
981.8,0.0068788875066778665
977.8,0.006101862066006627
973.81,0.005024215792643888
969.81,0.0037846883563146354
965.81,0.0021761859241877096
961.81,-0.0003460074400769026
957.82,-0.004438212167431451
953.82,-0.009906872723433723
949.82,-0.01467742556275756
945.82,-0.015753141195641966
941.83,-0.012211711564031096
937.83,-0.0064912435112377195
933.83,-0.0018448694949290065
929.83,0.0005534362348279184
925.84,0.0014208601922175573
921.84,0.0014183497706699993
917.84,0.0007428159874815314
913.84,3.755707923167387e-05
909.84,0.00016761987785246166
905.85,0.0011313921388280343
901.85,0.0023068753827260938
897.85,0.003511692136094197
893.85,0.0046680819488667865
889.86,0.00500605022789018
885.86,0.003834492643212558
881.86,0.0019144071953879679
877.86,0.0007673956869910185
873.87,0.0006710844776768414
869.87,0.0006509688921050964
865.87,0.0002979864562806852
861.87,0.00027827318033234183
857.88,0.0010816274904435277
853.88,0.002744042530607581
849.88,0.005290823958752397
845.88,0.00794896214280584
841.89,0.008693704547668022
837.89,0.0065559276822370165
833.89,0.0033256002257624276
829.89,0.0011646627497514939
825.89,-0.00039280297835087713
821.9,-0.0029154816952656204
817.9,-0.00469615854406065
813.9,-0.0018902905538602521
809.9,0.00440131502663231
805.91,0.00813136916302612
801.91,0.0055667961698355195
797.91,-0.0003708870048162449
793.91,-0.003917160627391142
789.92,-0.0029643484498791117
785.92,-0.0009170138855451593
781.92,-0.00457872140170118
777.92,-0.01464507504682433
773.93,-0.03278887411637765
769.93,-0.0002446133531079919
765.93,0.040881075826326274
761.93,-0.0030473399904145104
757.94,-0.03840770608098709
753.94,0.008502544607926765
749.94,2.8044455672837643e-05
745.94,-0.03855460350918938
741.95,-0.032529549335063024
737.95,-0.023286601983155575
733.95,-0.13090355490702255
729.95,-0.19982343828076554
725.95,-0.19507099812401274
721.96,-0.012303003713148297
717.96,0.04138036473329887
713.96,0.03323867224052046
709.96,0.05267116109098691
705.97,0.040102990160277685
701.97,-0.10672983139959558
697.97,-0.2086023383061115
693.97,-0.3881039079251246
689.98,-0.3443510777123033
685.98,-0.6857331020291692
681.98,-0.3623120565995208
677.98,-0.1904827246577587
673.99,0.09688654091561409
669.99,0.155770357100163
665.99,0.021508418833262682
661.99,0.16709012296158682
658.0,0.20437737011679033
654.0,0.22310205807935884
650.0,0.005699759760267702
