wavenumber,transmittance
4000.0,-0.0102487514101717
3996.0,-0.010733791237186652
3992.0,-0.011127938337051625
3988.01,-0.012588765495675674
3984.01,-0.013664489308805212
3980.01,-0.012508645726032754
3976.01,-0.009950023997483187
3972.02,-0.007794526301449763
3968.02,-0.00601601158007543
3964.02,-0.003993074598442381
3960.02,-0.0028707374936814403
3956.03,-0.004146715558084266
3952.03,-0.006855411838783562
3948.03,-0.008548989229958788
3944.03,-0.008924372234522186
3940.04,-0.009489261643440706
3936.04,-0.010697192012254116
3932.04,-0.012124082858128608
3928.04,-0.014128882896543467
3924.05,-0.016624007131640837
3920.05,-0.017539800301869052
3916.05,-0.01618177845322486
3912.05,-0.016197717050544087
3908.05,-0.020959767959831017
3904.06,-0.027606448039489802
3900.06,-0.02893422466363455
3896.06,-0.024506710623690305
3892.06,-0.02139944248386125
3888.07,-0.023053656460288497
3884.07,-0.025974214993991364
3880.07,-0.02675230437922469
3876.07,-0.02717496725941457
3872.08,-0.029258358144208095
3868.08,-0.030795684975202554
3864.08,-0.02938405996515921
3860.08,-0.026691146305668045
3856.09,-0.025334100401440164
3852.09,-0.025645663888431813
3848.09,-0.02719133580701693
3844.09,-0.030179598998357184
3840.1,-0.033193589574458754
3836.1,-0.03291005025427894
3832.1,-0.029841651337582306
3828.1,-0.028916023340878973
3824.11,-0.030949447429278083
3820.11,-0.03067509561287754
3816.11,-0.025048772549214463
3812.11,-0.01967119969956689
3808.11,-0.01920692343487418
3804.12,-0.020228147417829162
3800.12,-0.01667212688470008
3796.12,-0.010401577216173954
3792.12,-0.008116764279099542
3788.13,-0.010876138845340324
3784.13,-0.01461124468560138
3780.13,-0.016097344299070164
3776.13,-0.016316913400552767
3772.14,-0.017332413256049294
3768.14,-0.019320940400909595
3764.14,-0.022160572782044405
3760.14,-0.026961063477646877
3756.15,-0.0343524317217488
3752.15,-0.04275904371630615
3748.15,-0.0493140500526981
3744.15,-0.052713357255922584
3740.16,-0.053049189368266705
3736.16,-0.04974261318133741
3732.16,-0.04336544812750682
3728.16,-0.03689263391322475
3724.16,-0.03295279773885183
3720.17,-0.031978071821074684
3716.17,-0.032685984888415315
3712.17,-0.03210595745670722
3708.17,-0.02709873377255778
3704.18,-0.019243304333635726
3700.18,-0.014754683145940844
3696.18,-0.01747080392982617
3692.18,-0.023906337846395984
3688.19,-0.026156210553294482
3684.19,-0.02266308323907757
3680.19,-0.01967482210661945
3676.19,-0.020143322753588315
3672.2,-0.018810805703488608
3668.2,-0.012453281227714934
3664.2,-0.008095044283841063
3660.2,-0.01280606324794187
3656.21,-0.026106963817801115
3652.21,-0.038352513357532245
3648.21,-0.0377368102145091
3644.21,-0.027849944489815585
3640.21,-0.020925783025878487
3636.22,-0.0213994650605712
3632.22,-0.026448625711748542
3628.22,-0.031028795863214876
3624.22,-0.03281958348528035
3620.23,-0.03320434063340138
3616.23,-0.032968688861646125
3612.23,-0.030607254437886037
3608.23,-0.025718715486423648
3604.24,-0.021491832525836616
3600.24,-0.021451552779499623
3596.24,-0.025704320006697045
3592.24,-0.030504676774630726
3588.25,-0.03103670054008112
3584.25,-0.026551682943074084
3580.25,-0.02135190601021487
3576.25,-0.019703664432318774
3572.26,-0.022059975284485066
3568.26,-0.025182699503549403
3564.26,-0.025318596653957935
3560.26,-0.02258986883723181
3556.26,-0.020010446248983356
3552.27,-0.018842526480922005
3548.27,-0.017690899716065463
3544.27,-0.015392488255657826
3540.27,-0.013192260394067803
3536.28,-0.012752082489592568
3532.28,-0.013465150329727215
3528.28,-0.01296332197744142
3524.28,-0.009670344690502316
3520.29,-0.004947142716892606
3516.29,-0.0023420651181218794
3512.29,-0.004240353433368391
3508.29,-0.009040347962786676
3504.3,-0.011719666600241735
3500.3,-0.00882437201890777
3496.3,-0.0029033595616226497
3492.3,9.995262170527791e-05
3488.31,-0.002511591709915154
3484.31,-0.00794696401055866
3480.31,-0.011698601466520728
3476.31,-0.01215027337352982
3472.32,-0.010899158958417816
3468.32,-0.010029369005657398
3464.32,-0.010707819958491857
3460.32,-0.012962186198947127
3456.32,-0.015520854365109565
3452.33,-0.016704706490652314
3448.33,-0.01607220074193349
3444.33,-0.014592537668496636
3440.33,-0.012614383223656744
3436.34,-0.009614485189388247
3432.34,-0.006236387326657254
3428.34,-0.004584004281377915
3424.34,-0.005649456978659998
3420.35,-0.007726744266138052
3416.35,-0.00844994063208131
3412.35,-0.007360125939286548
3408.35,-0.005585107185728896
3404.36,-0.0042940413116063225
3400.36,-0.00444922047161051
3396.36,-0.006671980805816959
3392.36,-0.009982701910222252
3388.37,-0.011857327157809096
3384.37,-0.01098265853425426
3380.37,-0.008970709695097055
3376.37,-0.008041297398224078
3372.37,-0.008463047146929371
3368.38,-0.009458502567860076
3364.38,-0.010840450405896864
3360.38,-0.011972143374248546
3356.38,-0.010982505306923202
3352.39,-0.0072626026984233885
3348.39,-0.0034466566386650993
3344.39,-0.002379868409910996
3340.39,-0.0034222071326591667
3336.4,-0.003902940965524718
3332.4,-0.003225616414607238
3328.4,-0.0032261906589753954
3324.4,-0.004899733195259319
3320.41,-0.007363950926439152
3316.41,-0.009759949625422832
3312.41,-0.011738289034734721
3308.41,-0.012097910600447776
3304.42,-0.00981745328699201
3300.42,-0.006813541274812094
3296.42,-0.0065997556524881994
3292.42,-0.009673701230262627
3288.42,-0.012759324360636703
3284.43,-0.013501097051602894
3280.43,-0.013490510513536419
3276.43,-0.014905885013196472
3272.43,-0.016997862194330412
3268.44,-0.017988928748871893
3264.44,-0.018245092903404737
3260.44,-0.019032401756979057
3256.44,-0.019625842607517742
3252.45,-0.018393183910490316
3248.45,-0.015981561309670645
3244.45,-0.014744151049094295
3240.45,-0.015293311650356588
3236.46,-0.015822826717394337
3232.46,-0.014902962480664915
3228.46,-0.013224616694673848
3224.46,-0.012227913360791258
3220.47,-0.01227103138856385
3216.47,-0.012740317803764056
3212.47,-0.01318059043715978
3208.47,-0.013772953240922738
3204.47,-0.014873054816639962
3200.48,-0.016204154417684864
3196.48,-0.016647761214554673
3192.48,-0.015324801850758504
3188.48,-0.01303033739224916
3184.49,-0.011759072921707624
3180.49,-0.012404855295225569
3176.49,-0.013710192883427584
3172.49,-0.014013610426226704
3168.5,-0.013240902045668787
3164.5,-0.012318742167327274
3160.5,-0.011500330826226335
3156.5,-0.010497835722629823
3152.51,-0.00975153063156004
3148.51,-0.010127561200996558
3144.51,-0.011531377972147764
3140.51,-0.012926013213545091
3136.52,-0.013858255112450445
3132.52,-0.014923170931721921
3128.52,-0.016305407311487767
3124.52,-0.01689866110016835
3120.53,-0.015669886015578987
3116.53,-0.013393114387645535
3112.53,-0.012086420120363844
3108.53,-0.012735216812352701
3104.53,-0.014193916271231705
3100.54,-0.014642900284063537
3096.54,-0.013717676128317759
3092.54,-0.012579169972443491
3088.54,-0.011988367057392051
3084.55,-0.01135152508433989
3080.55,-0.009937780641715388
3076.55,-0.008282331718264015
3072.55,-0.007533548718890368
3068.56,-0.007770656093411987
3064.56,-0.00802889937144097
3060.56,-0.007944566999140718
3056.56,-0.008331568778243315
3052.57,-0.009872581578165129
3048.57,-0.012138716662740814
3044.57,-0.014272317540820378
3040.57,-0.01588104882936734
3036.58,-0.016629895178922712
3032.58,-0.01565180996651165
3028.58,-0.01239906114335184
3024.58,-0.007906741486942606
3020.58,-0.004381905531150615
3016.59,-0.0032688149965216518
3012.59,-0.003944347434089876
3008.59,-0.004474170421331872
3004.59,-0.003374334545599364
3000.6,-0.000658408957576323
2996.6,0.0025687587826821665
2992.6,0.005448337777995499
2988.6,0.008123286833884191
2984.61,0.010975487538120395
2980.61,0.013525063894388942
2976.61,0.014712144455341032
2972.61,0.014052560929428679
2968.62,0.01206143906722331
2964.62,0.009672378186113093
2960.62,0.00762535403872279
2956.62,0.00636532833988411
2952.63,0.006034943906527989
2948.63,0.006296436384141908
2944.63,0.006588536461647903
2940.63,0.006762362722668384
2936.63,0.007044362430938873
2932.64,0.00727068481488426
2928.64,0.006848031979354689
2924.64,0.005693420423776414
2920.64,0.0046009873006594565
2916.65,0.004194337415218661
2912.65,0.004056797682575074
2908.65,0.00353110411584881
2904.65,0.00260088398608942
2900.66,0.0015982080597754557
2896.66,0.0007622701354541121
2892.66,0.0002823054969882284
2888.66,0.0002892165847064414
2884.67,0.0005575848973786365
2880.67,0.0005740653840607332
2876.67,0.00013213699497226228
2872.67,-0.0005374791492155501
2868.68,-0.001293818924767605
2864.68,-0.002182010864506489
2860.68,-0.0028216945091765235
2856.68,-0.002419869058843921
2852.68,-0.0008756252253819923
2848.69,0.0007081592262444536
2844.69,0.0013180327429354738
2840.69,0.0011266984278830942
2836.69,0.000672996991979662
2832.7,1.9064020295471093e-05
2828.7,-0.0007226231108549627
2824.7,-0.0009705987679445739
2820.7,-0.0005553497072674132
2816.71,-0.0002534653844620538
2812.71,-0.0006223396061945299
2808.71,-0.0009506297644365988
2804.71,-0.0004250152326370736
2800.72,0.00026673819547229013
2796.72,-0.00018119956267653552
2792.72,-0.0016244800410956783
2788.72,-0.002598727295935176
2784.73,-0.0024935697447050313
2780.73,-0.0022322634899126746
2776.73,-0.0024892896780962202
2772.73,-0.0025694088515686112
2768.74,-0.001720476693841174
2764.74,-0.0005435508061095336
2760.74,-0.00025366555826491534
2756.74,-0.001123208620932582
2752.74,-0.0023357097849994405
2748.75,-0.0030967513531903537
2744.75,-0.003265861906007028
2740.75,-0.0030944426049287
2736.75,-0.0028612327062512936
2732.76,-0.0027366433048523677
2728.76,-0.0027126175422279193
2724.76,-0.0026611973616897638
2720.76,-0.0025552777635845566
2716.77,-0.002480885891829404
2712.77,-0.002404758379314864
2708.77,-0.002175758241813144
2704.77,-0.0018471468530283624
2700.78,-0.0017040931591797304
2696.78,-0.0018010594465806933
2692.78,-0.0017889023415416962
2688.78,-0.0014146463883779412
2684.79,-0.0009368279662419973
2680.79,-0.0007362623238224529
2676.79,-0.0006765158922443001
2672.79,-0.0001873746761311655
2668.79,0.0010346523154024217
2664.8,0.0026191410655237377
2660.8,0.0038646980726757714
2656.8,0.004365717737338324
2652.8,0.004297778655319046
2648.81,0.0041979682830730215
2644.81,0.004399961884938386
2640.81,0.004662193376669264
2636.81,0.004460842287951794
2632.82,0.0037346738109172457
2628.82,0.003214463367946419
2624.82,0.003771558423690315
2620.82,0.005450061170690693
2616.83,0.007342493017688731
2612.83,0.008355228018449536
2608.83,0.008052954230763026
2604.83,0.006477927517390854
2600.84,0.003378066552547578
2596.84,-0.0014289478445793499
2592.84,-0.006509417514529361
2588.84,-0.008757017230857032
2584.84,-0.006398655332645744
2580.85,-0.0019551201179536046
2576.85,0.00027117239437313145
2572.85,-0.0008334872874860132
2568.85,-0.0024664507023537657
2564.86,-0.0021889775659676043
2560.86,-0.0014328144141859721
2556.86,-0.0026117143401725154
2552.86,-0.005216001505236914
2548.87,-0.0066998040753296325
2544.87,-0.005452318180825943
2540.87,-0.001841536896531308
2536.87,0.0029994299000708647
2532.88,0.006998643490810193
2528.88,0.007342072669925131
2524.88,0.0028119674816495625
2520.88,-0.004108007859891054
2516.89,-0.009189865183460901
2512.89,-0.011140506263950333
2508.89,-0.011568659712446555
2504.89,-0.010908997974209064
2500.89,-0.008283772941902386
2496.9,-0.0048024359428153526
2492.9,-0.003242237438129049
2488.9,-0.004416472062657833
2484.9,-0.005932278049723125
2480.91,-0.005430726728170575
2476.91,-0.0030520158699979634
2472.91,6.800821809690126e-05
2468.91,0.003493458776300319
2464.92,0.007095774714435196
2460.92,0.010065890495658742
2456.92,0.01122798290415651
2452.92,0.010481701183166433
2448.93,0.008736496599694289
2444.93,0.006417339265308445
2440.93,0.0035249236147284497
2436.93,0.00045773014665102633
2432.94,-0.0019326289642078807
2428.94,-0.0031276106229806474
2424.94,-0.0032809416301018152
2420.94,-0.00302788857958035
2416.95,-0.002957385173891337
2412.95,-0.003275559587305814
2408.95,-0.0035493277421545667
2404.95,-0.003053573304325763
2400.95,-0.001941918788666952
2396.96,-0.0013647840623610581
2392.96,-0.0023018045795530455
2388.96,-0.004254475208059038
2384.96,-0.005402803684547835
2380.97,-0.004324301663449843
2376.97,-0.00133415216343747
2372.97,0.0012649597684187379
2368.97,0.0012306108264265097
2364.98,-0.0007146590562251819
2360.98,-0.0015758681418449375
2356.98,-0.00037470185005158323
2352.98,0.0009289824129764448
2348.99,0.000982924459160677
2344.99,0.000564225885336658
2340.99,0.0013136738808418682
2336.99,0.0036528719686158835
2333.0,0.006190734888203136
2329.0,0.007509447740779891
2325.0,0.007042668042959523
2321.0,0.004741622846213153
2317.0,0.001447049205618237
2313.01,-0.0006911178010093402
2309.01,0.0003281873349149011
2305.01,0.004231759548383999
2301.01,0.00921005687299177
2297.02,0.013624375913880465
2293.02,0.016302661751463075
2289.02,0.01733497555512397
2285.02,0.018092983532229562
2281.03,0.02110196699926178
2277.03,0.02884320676180351
2273.03,0.038973854565201596
2269.03,0.045567483053525065
2265.04,0.041666136807902064
2261.04,0.025631488747830368
2257.04,0.006226327043230012
2253.04,-0.007686319597859812
2249.05,-0.006150306403443488
2245.05,0.009804408790008181
2241.05,0.02710178724875394
2237.05,0.04009984110498598
2233.05,0.046845285719685395
2229.06,0.04570161159648014
2225.06,0.034533283501195
2221.06,0.016094141949921315
2217.06,0.00022889016702835885
2213.07,-0.006373287004229329
2209.07,-0.000422000974012883
2205.07,0.01046665941583538
2201.07,0.017532748018902422
2197.08,0.016934339559761133
2193.08,0.012678737831643042
2189.08,0.003856730580747786
2185.08,-0.014348550072552469
2181.09,-0.034985111908815966
2177.09,-0.04258517241348214
2173.09,-0.025222803639830225
2169.09,-0.0017267634648480135
2165.1,0.005345397292619909
2161.1,0.011476530946714032
2157.1,0.03593706761682864
2153.1,0.06248322053507982
2149.11,0.06014581947203906
2145.11,0.04031648219228898
2141.11,0.027778968920037814
2137.11,0.022482879985570914
2133.11,0.01498702318747734
2129.12,0.00831293104656657
2125.12,0.006237858651916956
2121.12,0.007495052158482272
2117.12,0.004408293184623081
2113.13,-0.008658338477319474
2109.13,-0.02790453138625744
2105.13,-0.04038270052989365
2101.13,-0.0372044401650525
2097.14,-0.028593178426641608
2093.14,-0.02519076377457055
2089.14,-0.02497937390604197
2085.14,-0.02013416533956236
2081.15,-0.00858997150460971
2077.15,0.00934869578588077
2073.15,0.03203202628394139
2069.15,0.04331361369159625
2065.16,0.03160048000339235
2061.16,0.008577505340083537
2057.16,0.0005071672233639942
2053.16,0.00839012313666019
2049.16,0.018798682332796784
2045.17,0.043156047652811155
2041.17,0.07600126743956276
2037.17,0.07484675749603244
2033.17,0.056087907156371394
2029.18,0.01888461714788486
2025.18,-0.024527268872629068
2021.18,-0.02802847383736354
2017.18,-0.02002015066927327
2013.19,-0.02671913475463388
2009.19,-0.010583400872346839
2005.19,0.011676343084823518
2001.19,0.024385315183243085
1997.2,0.02951004024267502
1993.2,0.017459881834740083
1989.2,-0.005322071426326524
1985.2,-0.036975651104621796
1981.21,-0.06762874036595194
1977.21,-0.048026425580600655
1973.21,-0.025563422144700948
1969.21,-0.011048608834548846
1965.21,-0.0013790096655856027
1961.22,0.005785381834353825
1957.22,0.0005988311762071888
1953.22,-0.019681193278833976
1949.22,-0.04752004830828945
1945.23,-0.0530744751909668
1941.23,-0.03402021775738674
1937.23,-0.02370211475173963
1933.23,-0.03269579511384313
1929.24,-0.039796202970737826
1925.24,-0.028131309104226412
1921.24,-0.012855628117346455
1917.24,-0.006706171846316623
1913.25,-0.005657786633909179
1909.25,-0.005306789644909288
1905.25,-0.009253846175987967
1901.25,-0.018031977855786262
1897.26,-0.02291066893159749
1893.26,-0.018421016357206176
1889.26,-0.011770372801284268
1885.26,-0.008384982055966219
1881.26,-0.006814892241458006
1877.27,-0.006727039225110547
1873.27,-0.01103877291807192
1869.27,-0.017760612568201696
1865.27,-0.01891983698757553
1861.28,-0.013636295771791391
1857.28,-0.01112036742951145
1853.28,-0.015060275436902873
1849.28,-0.019116722424556806
1845.29,-0.017581913253425625
1841.29,-0.015557537003375276
1837.29,-0.01803330661846065
1833.29,-0.021275141616103874
1829.3,-0.019900242861437413
1825.3,-0.016216560220144532
1821.3,-0.014736601278941153
1817.3,-0.014811922555272403
1813.31,-0.014489705848862253
1809.31,-0.015179418926536327
1805.31,-0.01850348801454827
1801.31,-0.02249302295724402
1797.32,-0.02356693206957713
1793.32,-0.021580515941405143
1789.32,-0.01905883871570123
1785.32,-0.01759471157337939
1781.32,-0.018159573678010698
1777.33,-0.021518125204318044
1773.33,-0.025783066679340404
1769.33,-0.026415507017978207
1765.33,-0.02317838728370686
1761.34,-0.021706035690978485
1757.34,-0.025226792493335592
1753.34,-0.030465619237442787
1749.34,-0.03250409658785184
1745.35,-0.03288439206637074
1741.35,-0.03526989263445676
1737.35,-0.03711602181973807
1733.35,-0.033999075337426646
1729.36,-0.02983192463945447
1725.36,-0.030535707541414527
1721.36,-0.03505535862126539
1717.36,-0.03717254477378466
1713.37,-0.035969325100604896
1709.37,-0.03714103002393947
1705.37,-0.041826147996193844
1701.37,-0.043250449667684404
1697.37,-0.03746075586964275
1693.38,-0.030624980273878267
1689.38,-0.02676775591693069
1685.38,-0.023323769389024987
1681.38,-0.01799605199541847
1677.39,-0.012412491592640906
1673.39,-0.0075534941533266856
1669.39,-0.002313166131021012
1665.39,0.002199136116194808
1661.4,0.0024133292027250577
1657.4,-0.0032284524674591406
1653.4,-0.010548938968890996
1649.4,-0.012634370059182339
1645.41,-0.01055467787635958
1641.41,-0.009768503964293886
1637.41,-0.01159867759996016
1633.41,-0.014181177154525222
1629.42,-0.016493565786595592
1625.42,-0.018814536628007673
1621.42,-0.02031612656819684
1617.42,-0.019425585701274426
1613.42,-0.016395278454898906
1609.43,-0.012894719300386888
1605.43,-0.010114775346410764
1601.43,-0.008574100792281818
1597.43,-0.008059900542895022
1593.44,-0.007581627922490251
1589.44,-0.006830984847762293
1585.44,-0.007230345225964711
1581.44,-0.009811389727416492
1577.45,-0.012741341468628323
1573.45,-0.01355476768271563
1569.45,-0.01377825185807769
1565.45,-0.01647420313170358
1561.46,-0.019748166292484645
1557.46,-0.017652716516837565
1553.46,-0.012224327215084707
1549.46,-0.01163833676968027
1545.47,-0.017643818122166706
1541.47,-0.02280414658561359
1537.47,-0.020404911374065672
1533.47,-0.017209481426523725
1529.47,-0.02038607853994103
1525.48,-0.02800260934684852
1521.48,-0.03325189730823045
1517.48,-0.03507734099348172
1513.48,-0.03724885625500005
1509.49,-0.03779908311599066
1505.49,-0.03219542056594987
1501.49,-0.02379215364092973
1497.49,-0.01822912088846631
1493.5,-0.014658840153623273
1489.5,-0.009363404020504174
1485.5,-0.0032768754489195875
1481.5,-0.000153436095023822
1477.51,-7.007169745796432e-05
1473.51,0.0005797961489728415
1469.51,0.002699754022360175
1465.51,0.002387265258517242
1461.52,-0.0016454021659051965
1457.52,-0.003919388033360512
1453.52,0.00030616248278061975
1449.52,0.0061958199249097234
1445.53,0.007596412700017173
1441.53,0.004222712814072979
1437.53,0.0002312158433780756
1433.53,-0.0015951660579678686
1429.53,-0.0028487256494940175
1425.54,-0.005002554806275143
1421.54,-0.006409544022767721
1417.54,-0.005231447101785483
1413.54,-0.0028800364894325525
1409.55,-0.0019912036659659044
1405.55,-0.00331965357800627
1401.55,-0.005079608249332242
1397.55,-0.004330469959067849
1393.56,7.44096255406862e-06
1389.56,0.005377001333586998
1385.56,0.008181046995494115
1381.56,0.007447514766235147
1377.57,0.005125502919425491
1373.57,0.0034966801599234654
1369.57,0.0029182874713554463
1365.57,0.002721520923734448
1361.58,0.0030462922315388184
1357.58,0.004070705801058269
1353.58,0.004480985654322093
1349.58,0.0027121655858013613
1345.58,-0.0006492840353417399
1341.59,-0.002804807752200038
1337.59,-0.0019108714624905265
1333.59,0.0005965886490177062
1329.59,0.0021296395021939314
1325.6,0.0018893344317131334
1321.6,0.0010522825550428327
1317.6,0.001043893926497473
1313.6,0.0022585113058959036
1309.61,0.004215672228576141
1305.61,0.006332585416807628
1301.61,0.008320553402431069
1297.61,0.010088829303218992
1293.62,0.01158438055302214
1289.62,0.01284824256393768
1285.62,0.01413348789295385
1281.62,0.01575820021330452
1277.63,0.01769144422834907
1273.63,0.019390003680576612
1269.63,0.02023745205198256
1265.63,0.020178487651690634
1261.63,0.019849443440213443
1257.64,0.019955781131596177
1253.64,0.020785129014938425
1249.64,0.022488854796059048
1245.64,0.025297972560609006
1241.65,0.02906316304707038
1237.65,0.03283265496212395
1233.65,0.03549251755664268
1229.65,0.03705756691255821
1225.66,0.0386910213529334
1221.66,0.04070996022567308
1217.66,0.0404196398332185
1213.66,0.037719003110139315
1209.67,0.034475371210437145
1205.67,0.03089003786294786
1201.67,0.02794600580493034
1197.67,0.02499380789369711
1193.68,0.02140616754797854
1189.68,0.01783977213467193
1185.68,0.015587189687392006
1181.68,0.015197659566625506
1177.68,0.016201302308989828
1173.69,0.01792037341705556
1169.69,0.01992661572646058
1165.69,0.021737675617898577
1161.69,0.022762368210259606
1157.7,0.022780121624208283
1153.7,0.022061590137971827
1149.7,0.020846947949910155
1145.7,0.01898418707958615
1141.71,0.016259725749854743
1137.71,0.012954417235296813
1133.71,0.009953307267009652
1129.71,0.0082713541586679
1125.72,0.008387206374280358
1121.72,0.00990424499970179
1117.72,0.011813708748199338
1113.72,0.013284774748763446
1109.73,0.01433181643177403
1105.73,0.015683866231825154
1101.73,0.018024667453184682
1097.73,0.021245981646491482
1093.74,0.024198268350463223
1089.74,0.025275222969065054
1085.74,0.023911883702441985
1081.74,0.021668660458480937
1077.74,0.020989674889338623
1073.75,0.022623510979157754
1069.75,0.024754407848422144
1065.75,0.02509660157939209
1061.75,0.023417235586193928
1057.76,0.021246236325123166
1053.76,0.019839439480622195
1049.76,0.01933413306632951
1045.76,0.019410550837046354
1041.77,0.01975125913972595
1037.77,0.01985328574572541
1033.77,0.01928282208594764
1029.77,0.01827793863163201
1025.78,0.017427887987699647
1021.78,0.01677018725110572
1017.78,0.01593283495935886
1013.78,0.015074864180606527
1009.79,0.014718649560544889
1005.79,0.014577169131668294
1001.79,0.013596506224642847
997.79,0.011489349840275519
993.79,0.009347369811652345
989.8,0.00827794909798505
985.8,0.008077707200327753
981.8,0.007795125834828774
977.8,0.007005948518160856
973.81,0.005923087164926151
969.81,0.004692315266562172
965.81,0.003095812624157347
961.81,0.000652029656311252
957.82,-0.003202723654533453
953.82,-0.008319526949415883
949.82,-0.012821007867532371
945.82,-0.013873692188953478
941.83,-0.010541669587322264
937.83,-0.005119931351423038
933.83,-0.0007075427128627118
929.83,0.0016188365764576787
925.84,0.0025304535572970924
921.84,0.0024786328366862356
917.84,0.0014844501600809884
913.84,0.00024209405448138294
909.84,-0.0001456318728774008
905.85,0.000532226788015018
901.85,0.001688015634853891
897.85,0.0030181902330861186
893.85,0.004237919223025284
889.86,0.004385347571454801
885.86,0.0027660406792885707
881.86,0.0004178528157019086
877.86,-0.0008019067354516785
873.87,-0.0006183015132590602
869.87,-0.0003448396060909062
865.87,-0.0006396223310606713
861.87,-0.0007232066000809369
857.88,0.00018460796413662453
853.88,0.002219849857433877
849.88,0.0052883953851788
845.88,0.00855716010752107
841.89,0.01011698115130407
837.89,0.009004799192436706
833.89,0.006662614280940494
829.89,0.0047113674987295864
825.89,0.0026810444037876704
821.9,-0.00038505445197058175
817.9,-0.002499125617918936
813.9,-0.00023016729780893364
809.9,0.005394762656238256
805.91,0.00949453814842531
801.91,0.009216852583919216
797.91,0.006093213360826216
793.91,0.0034784614130507208
789.92,0.0034567982389985263
785.92,0.004190188547237406
781.92,5.901861407708875e-05
777.92,-0.010827656508383354
773.93,-0.0401918420025702
769.93,-0.04951201788851256
765.93,-0.02694246787409571
761.93,-0.06502262305204587
757.94,-0.05392427487689
753.94,0.17100844549295358
749.94,0.1628525289096301
745.94,-0.014902017800706435
741.95,-0.0683142029175895
737.95,-0.02570680128694347
733.95,-0.09448488433765279
729.95,-0.1690642922525396
725.95,-0.22346564258900364
721.96,-0.09699422068246782
717.96,0.021316090938535592
713.96,0.05306616493582267
709.96,0.044457790231708094
705.97,-0.010301966748743563
701.97,-0.15182136649322217
697.97,-0.1667528485320059
693.97,-0.31752487862045015
689.98,-0.2078115685448118
685.98,-0.5662174637063111
681.98,-0.329703385343615
677.98,-0.15753432991680077
673.99,0.17293899469616036
669.99,0.15464449189696056
665.99,0.060867081232440626
661.99,0.2082525043248555
658.0,0.2238995563233679
654.0,0.21441972572711754
650.0,-0.04274804577655639
