wavenumber,transmittance
4000.0,-0.009095898726323109
3996.0,-0.01058692314109242
3992.0,-0.012331505954414273
3988.01,-0.014917231031612098
3984.01,-0.016582516752296945
3980.01,-0.01565720183698909
3976.01,-0.013276571585775578
3972.02,-0.0112048051444652
3968.02,-0.009091347176733367
3964.02,-0.006263557199877116
3960.02,-0.004315428341683017
3956.03,-0.005236159882701992
3952.03,-0.008176388650645645
3948.03,-0.010386621599368331
3944.03,-0.011055092151138063
3940.04,-0.01124618855261896
3936.04,-0.011289703149465148
3932.04,-0.011152212069666236
3928.04,-0.011830424413642408
3924.05,-0.013553479080999114
3920.05,-0.014140954782452668
3916.05,-0.01274559431383657
3912.05,-0.013120932719361019
3908.05,-0.018859720059453793
3904.06,-0.027027980246221474
3900.06,-0.029840081969712724
3896.06,-0.026434519940805264
3892.06,-0.024160512284599867
3888.07,-0.02671913946108289
3884.07,-0.030287631392173678
3880.07,-0.03093498261648613
3876.07,-0.030347556357421
3872.08,-0.030918445310205454
3868.08,-0.031109178819733085
3864.08,-0.02901168789675203
3860.08,-0.02619265005132306
3856.09,-0.024823501368796068
3852.09,-0.024988781310551433
3848.09,-0.026389016643411554
3844.09,-0.02932645559848467
3840.1,-0.03224206458821559
3836.1,-0.03186284784976636
3832.1,-0.02919962959712676
3828.1,-0.029435097415157343
3824.11,-0.032790948450449164
3820.11,-0.03279621470804012
3816.11,-0.02593776298087945
3812.11,-0.019177891923269328
3808.11,-0.01858977968150647
3804.12,-0.020631330897647716
3800.12,-0.017742494816793332
3796.12,-0.010671787750061142
3792.12,-0.006764746502431295
3788.13,-0.008087539516494099
3784.13,-0.01092899743168379
3780.13,-0.012001910979110957
3776.13,-0.012237488975443854
3772.14,-0.013681009350455691
3768.14,-0.016162005573035973
3764.14,-0.019025988378699257
3760.14,-0.02342347961305564
3756.15,-0.03066531724687169
3752.15,-0.03961305554721223
3748.15,-0.046731329002018554
3744.15,-0.04972195980502284
3740.16,-0.04910689814950386
3736.16,-0.045437498152443856
3732.16,-0.03936946517208328
3728.16,-0.03304732956713455
3724.16,-0.028957063659872793
3720.17,-0.028383074341317528
3716.17,-0.03058052227666682
3712.17,-0.03191189786088346
3708.17,-0.028057115620476678
3704.18,-0.020457889306925787
3700.18,-0.016117387353623017
3696.18,-0.01914030693986243
3692.18,-0.025399066407228672
3688.19,-0.026504495931669775
3684.19,-0.021652479731756255
3680.19,-0.018202135965099692
3676.19,-0.01928186837440731
3672.2,-0.01874099463543609
3668.2,-0.012534524454404459
3664.2,-0.008320804712842298
3660.2,-0.014524428682655069
3656.21,-0.031564469625099574
3652.21,-0.04906732589455198
3648.21,-0.0520361809939884
3644.21,-0.04197606024608702
3640.21,-0.032411644426317464
3636.22,-0.029306971007108155
3632.22,-0.03028083434834406
3628.22,-0.030635402691367365
3624.22,-0.028879045475947315
3620.23,-0.02693392456222022
3616.23,-0.025424430588503747
3612.23,-0.022561193529538108
3608.23,-0.017825390732695345
3604.24,-0.014226273179322771
3600.24,-0.015016181433988425
3596.24,-0.02016853038652959
3592.24,-0.025987861989398276
3588.25,-0.02751666493870948
3584.25,-0.023515913247154737
3580.25,-0.017996457700603694
3576.25,-0.01564347444280818
3572.26,-0.017840817688639477
3568.26,-0.022061286359169843
3564.26,-0.024233683722711796
3560.26,-0.023320247166506398
3556.26,-0.02158986362567997
3552.27,-0.020416415255688432
3548.27,-0.018928552005388156
3544.27,-0.016456967357470004
3540.27,-0.014482948760687876
3536.28,-0.014645502969143423
3532.28,-0.0161317789064334
3528.28,-0.016227999040291333
3524.28,-0.013017531926266134
3520.29,-0.007796755531059717
3516.29,-0.004381553127784186
3512.29,-0.0055057684240978535
3508.29,-0.009832614205823115
3504.3,-0.01246092743383559
3500.3,-0.009856379464505585
3496.3,-0.004304547921830383
3492.3,-0.0014358678479832482
3488.31,-0.0037919910873413665
3484.31,-0.008620378635875472
3480.31,-0.01156083899572578
3476.31,-0.011259170693332238
3472.32,-0.009708837474345144
3468.32,-0.00922430684119533
3464.32,-0.010627806191778617
3460.32,-0.013233201362409547
3456.32,-0.015550744122808192
3452.33,-0.01655133783545728
3448.33,-0.016439430110755417
3444.33,-0.015782796509988394
3440.33,-0.01385291749717911
3436.34,-0.00972440941468933
3432.34,-0.004740592412851581
3428.34,-0.0019295113724861375
3424.34,-0.002517851338171149
3420.35,-0.004529575474406319
3416.35,-0.0054279117329002835
3412.35,-0.004676294434026916
3408.35,-0.003149536861318372
3404.36,-0.0017555627679328965
3400.36,-0.0015002384939449588
3396.36,-0.0033273173660270036
3392.36,-0.006563602653034369
3388.37,-0.008811741763393811
3384.37,-0.008658477663366915
3380.37,-0.007284724786638485
3376.37,-0.006355235641155622
3372.37,-0.00607288647078345
3368.38,-0.006226253077818341
3364.38,-0.007163048015903449
3360.38,-0.008091142360019336
3356.38,-0.0066064500311307384
3352.39,-0.0020408071362479005
3348.39,0.0024725077150038917
3344.39,0.003799638222288036
3340.39,0.002859642332355434
3336.4,0.0026950445896067043
3332.4,0.003925400817754644
3328.4,0.004561222525265116
3324.4,0.0035755815268833195
3320.41,0.0018513167196238037
3316.41,0.00011790051518664399
3312.41,-0.0014719577540225175
3308.41,-0.001835966341769156
3304.42,4.19066361308125e-05
3300.42,0.00237936927119076
3296.42,0.001936052923785743
3292.42,-0.0015511273859492615
3288.42,-0.004813282729236562
3284.43,-0.005663498632993176
3280.43,-0.005770793676764764
3276.43,-0.007294607724655721
3272.43,-0.009534774136374508
3268.44,-0.01080294944893526
3264.44,-0.011398454747368147
3260.44,-0.012433848216317225
3256.44,-0.01323588567378868
3252.45,-0.012357039757482705
3248.45,-0.010373944453920717
3244.45,-0.009305683000690625
3240.45,-0.009614433997008086
3236.46,-0.009749701365615213
3232.46,-0.00860926121711081
3228.46,-0.006996397582280742
3224.46,-0.006380496504664601
3220.47,-0.007167440193476827
3216.47,-0.008545042369783866
3212.47,-0.009580384441026478
3208.47,-0.010197212664682563
3204.47,-0.011029166821515248
3200.48,-0.01220400408036514
3196.48,-0.012667371772434271
3192.48,-0.011416355787140143
3188.48,-0.009292703540999512
3184.49,-0.008366368340687462
3180.49,-0.009297858109940133
3176.49,-0.010489241204728033
3172.49,-0.010365112216478765
3168.5,-0.00931523180291389
3164.5,-0.008517245478514852
3160.5,-0.008036931852510401
3156.5,-0.007305609538005025
3152.51,-0.006683736608481049
3148.51,-0.0070656875727642555
3144.51,-0.008335980534334196
3140.51,-0.009466688715836533
3136.52,-0.010103605440240183
3132.52,-0.010931933820523966
3128.52,-0.01219861794237604
3124.52,-0.012874845213892845
3120.53,-0.011920490575089742
3116.53,-0.00989277679464015
3112.53,-0.008587583215913092
3108.53,-0.009130578181803219
3104.53,-0.01077266183563011
3100.54,-0.01175161394305696
3096.54,-0.011192546767364041
3092.54,-0.009765838302192228
3088.54,-0.008411420225774239
3084.55,-0.0071716383156220295
3080.55,-0.0055997071533653645
3076.55,-0.003923439074545922
3072.55,-0.0029642578412952397
3068.56,-0.0029079633315856265
3064.56,-0.0030630796572538414
3060.56,-0.0030054706664131743
3056.56,-0.0032117005450971875
3052.57,-0.004272416551525611
3048.57,-0.006101365498330014
3044.57,-0.008197624920218614
3040.57,-0.010135650672968982
3036.58,-0.011342670631641322
3032.58,-0.010903803302956927
3028.58,-0.008316658469842614
3024.58,-0.00423432251281132
3020.58,-6.128819501489968e-05
3016.59,0.00298294053859674
3012.59,0.004584416626100318
3008.59,0.005583615236508417
3004.59,0.0072684900909918415
3000.6,0.010167916078673463
2996.6,0.01374210490334269
2992.6,0.017355368390826235
2988.6,0.021130959669973345
2984.61,0.025380907915795774
2980.61,0.029495586711502396
2976.61,0.03221510464726001
2972.61,0.032893963955699865
2968.62,0.031966653753922415
2964.62,0.030304797571467507
2960.62,0.0285792095965354
2956.62,0.027264770192670772
2952.63,0.026611961784390535
2948.63,0.0263726162094007
2944.63,0.026025412158735193
2940.63,0.025423436328947713
2936.63,0.02479053012382776
2932.64,0.0240069452955154
2928.64,0.022555361275098027
2924.64,0.02042733134504076
2920.64,0.018484683719193512
2916.65,0.01735528203983109
2912.65,0.016519129035169507
2908.65,0.015215243394584261
2904.65,0.01344553978152806
2900.66,0.011690630252324304
2896.66,0.010319538183230378
2892.66,0.009492220011994502
2888.66,0.009244888207184387
2884.67,0.00935468846169436
2880.67,0.00937098826048479
2876.67,0.009007849148941958
2872.67,0.008264849476844909
2868.68,0.007142690069543486
2864.68,0.005689703487914664
2860.68,0.004444583481010601
2856.68,0.004235569353728139
2852.68,0.0051778931919367575
2848.69,0.006310919878399251
2844.69,0.00673512101013261
2840.69,0.006519451164344379
2836.69,0.006021411495190341
2832.7,0.005296110598275361
2828.7,0.004588671354293944
2824.7,0.004489190021231227
2820.7,0.005011045618837796
2816.71,0.005325972999981443
2812.71,0.0050198920907668955
2808.71,0.004871593873221154
2804.71,0.0055402850368136
2800.72,0.006210850108315012
2796.72,0.005682898302488474
2792.72,0.004232715202967759
2788.72,0.0032490149717875026
2784.73,0.0032374042275354117
2780.73,0.0034054322248657093
2776.73,0.003291755578207548
2772.73,0.003537992254491685
2768.74,0.004615797168728848
2764.74,0.005776305264160925
2760.74,0.005907180406345627
2756.74,0.004878907507402273
2752.74,0.0035663111961975434
2748.75,0.0028190566135723183
2744.75,0.002831181438564265
2740.75,0.003283545061033042
2736.75,0.0037424425260176395
2732.76,0.003999801980744969
2728.76,0.0041705966099014925
2724.76,0.0044488748553410135
2720.76,0.004818727341933638
2716.77,0.0051543525171927704
2712.77,0.005479138348061985
2708.77,0.005869733320440797
2704.77,0.006170893600220408
2700.78,0.006149171552348134
2696.78,0.005966290738734035
2692.78,0.006129748272513169
2688.78,0.006866839110179919
2684.79,0.007833867839387457
2680.79,0.008610690348679582
2676.79,0.009279250252566715
2672.79,0.010297490848254391
2668.79,0.011874366214279787
2664.8,0.013621997599168871
2660.8,0.014877679449589712
2656.8,0.01530850097476631
2652.8,0.015182449942567993
2648.81,0.01506870150112821
2644.81,0.015184263225640189
2640.81,0.015151638379578593
2636.81,0.014536943636011256
2632.82,0.013522956505017232
2628.82,0.01292290239788666
2624.82,0.013530491125149154
2620.82,0.015448912268542229
2616.83,0.017930192348481165
2612.83,0.019643101680990423
2608.83,0.019552151453181586
2604.83,0.017629963520567064
2600.84,0.0143264387945975
2596.84,0.009970712175742386
2592.84,0.005477432178880167
2588.84,0.0030258703378172134
2584.84,0.0041729908627845935
2580.85,0.007008178596162949
2576.85,0.007942322155717444
2572.85,0.006217543251462239
2568.85,0.004682293865267334
2564.86,0.005465614193686715
2560.86,0.006425442210658079
2556.86,0.004644150808383861
2552.86,0.0008270681107278082
2548.87,-0.0018201878753861542
2544.87,-0.0012399395598230722
2540.87,0.0021381213616159488
2536.87,0.007032219051333883
2532.88,0.011301861215308984
2528.88,0.012110123491498955
2524.88,0.008119734072081
2520.88,0.0015158055659708104
2516.89,-0.003826240393729934
2512.89,-0.006412290063902216
2508.89,-0.007043629977546486
2504.89,-0.005764682268745329
2500.89,-0.002418569791866074
2496.9,0.0010362572003485247
2492.9,0.0019861271987038076
2488.9,0.0004910006962555741
2484.9,-0.0007211304531496623
2480.91,0.00026370474831380157
2476.91,0.003177851068752664
2472.91,0.007082975061928638
2468.91,0.01107528435387293
2464.92,0.014128808954933694
2460.92,0.015418336853316728
2456.92,0.015072255101678936
2452.92,0.014194983705014767
2448.93,0.013313723189255932
2444.93,0.01169462476306035
2440.93,0.00892937150298957
2436.93,0.005574008051594526
2432.94,0.002658119585836711
2428.94,0.001007166673772904
2424.94,0.000642717381182191
2420.94,0.0006038089753095891
2416.95,-0.00011647570931301067
2412.95,-0.00159527592611927
2408.95,-0.002650805872121076
2404.95,-0.002189136481985113
2400.95,-0.0008722396626443009
2396.96,-0.00011724211807333934
2392.96,-0.0005166335164661501
2388.96,-0.0014820406897418249
2384.96,-0.0017710407216238004
2380.97,-0.00045779681696383936
2376.97,0.002184297748261904
2372.97,0.004157350411564346
2368.97,0.003407128458279461
2364.98,0.0009015873139988466
2360.98,0.00011181043367566998
2356.98,0.002029821147803692
2352.98,0.003984902446855549
2348.99,0.004039407347829646
2344.99,0.0029801128019293173
2340.99,0.0029532337078274906
2336.99,0.004952953532534675
2333.0,0.007609111025218049
2329.0,0.008989412166213373
2325.0,0.008049939112274168
2321.0,0.004703673799711176
2317.0,0.0002660349639642648
2313.01,-0.002629051416368922
2309.01,-0.0022456230958990925
2305.01,0.0005374320487966083
2301.01,0.004124669695880396
2297.02,0.007648913598956113
2293.02,0.009676379831687678
2289.02,0.0087151481363372
2285.02,0.005377241044584194
2281.03,0.0038717672562271583
2277.03,0.008482325314053239
2273.03,0.01525101185975361
2269.03,0.0161178248245892
2265.04,0.005879209374455074
2261.04,-0.01378120020973136
2257.04,-0.03384851228422529
2253.04,-0.04691385352894471
2249.05,-0.041580997917626566
2245.05,-0.01831286421249386
2241.05,0.0071325651795130385
2237.05,0.02642367278381765
2233.05,0.03812260321727988
2229.06,0.04188986277618674
2225.06,0.035560154205805106
2221.06,0.024173159799734247
2217.06,0.01756625558403294
2213.07,0.015203674080291597
2209.07,0.016397312882527257
2205.07,0.018970824193320385
2201.07,0.020806287304116183
2197.08,0.01876179193116023
2193.08,0.014016330058298627
2189.08,-3.25392532221757e-05
2185.08,-0.024811165408535073
2181.09,-0.04904361538382373
2177.09,-0.0565679008134737
2173.09,-0.035425606383535625
2169.09,0.0018007594175906382
2165.1,0.02766480726121624
2161.1,0.04821107929888286
2157.1,0.07709527898388029
2153.1,0.0988958038902103
2149.11,0.0887510193759217
2145.11,0.05888238782654401
2141.11,0.03134227158937766
2137.11,0.012342214878396998
2133.11,0.001288711590825959
2129.12,-0.0012023828634326519
2125.12,0.001104271456124661
2121.12,0.0061075201414331586
2117.12,0.005922249682716507
2113.13,-0.007192076756101222
2109.13,-0.029090124719917503
2105.13,-0.04340019502466305
2101.13,-0.0390172787892537
2097.14,-0.02957070542897173
2093.14,-0.028385483710933405
2089.14,-0.030256545533512952
2085.14,-0.023922275646626686
2081.15,-0.01063510631005005
2077.15,0.005575556877474486
2073.15,0.02698075863220996
2069.15,0.043612200022782974
2065.16,0.04051628242499653
2061.16,0.024248958527380536
2057.16,0.01919647109958147
2053.16,0.025142109816443308
2049.16,0.032771713506809984
2045.17,0.057017887496142054
2041.17,0.09133749038505537
2037.17,0.08971115594822372
2033.17,0.0716120958940361
2029.18,0.037504429856748456
2025.18,-0.007411544319338912
2021.18,-0.015819501893647545
2017.18,-0.007499111688484156
2013.19,-0.01508880049606557
2009.19,-0.00468786141030933
2005.19,0.01396807096875817
2001.19,0.02713767775598927
1997.2,0.030245073340791365
1993.2,0.01727251835796247
1989.2,-0.003757725893515605
1985.2,-0.03656991981801861
1981.21,-0.06797167669719745
1977.21,-0.04341689790272588
1973.21,-0.018173300021747954
1969.21,-0.005522605188982348
1965.21,-0.0016821238340855825
1961.22,0.0036380403273266887
1957.22,0.003946120266977984
1953.22,-0.011470210866300377
1949.22,-0.03978117886288962
1945.23,-0.04979013111690425
1941.23,-0.034451980700415344
1937.23,-0.026844554756424093
1933.23,-0.039811100279694506
1929.24,-0.047869520002352096
1925.24,-0.03153512970890614
1921.24,-0.011062726979986776
1917.24,-0.002634189105008574
1913.25,-0.001232016465844147
1909.25,-0.0006753899522290363
1905.25,-0.004611729185205942
1901.25,-0.014085436644435257
1897.26,-0.01954143521256041
1893.26,-0.014917620552022212
1889.26,-0.008369118298761554
1885.26,-0.0056221888987542275
1881.26,-0.004160563111212177
1877.27,-0.0034506697809784633
1873.27,-0.007763614850847431
1869.27,-0.015395914928786577
1865.27,-0.016864489623299346
1861.28,-0.010758687885719926
1857.28,-0.007909596010008561
1853.28,-0.01282418241125834
1849.28,-0.01803356578823559
1845.29,-0.016652824326904635
1841.29,-0.014561603314799996
1837.29,-0.017591673357216515
1833.29,-0.021326638312432866
1829.3,-0.019594045132040015
1825.3,-0.015254376823787776
1821.3,-0.013417125173066313
1817.3,-0.013041624667640108
1813.31,-0.011953442600836767
1809.31,-0.01214450723891973
1805.31,-0.0156546859315621
1801.31,-0.02022986744376413
1797.32,-0.021842438162047794
1793.32,-0.020292330433178817
1789.32,-0.018041387432600337
1785.32,-0.0164010885691219
1781.32,-0.01653367469423847
1777.33,-0.019862837822161635
1773.33,-0.024515753228032105
1769.33,-0.02510141597906695
1765.33,-0.021203080062791188
1761.34,-0.019398331275657113
1757.34,-0.023358082410652608
1753.34,-0.029080792616035633
1749.34,-0.030974134782284862
1745.35,-0.031217266755713256
1741.35,-0.03411317511905089
1737.35,-0.03637838366538009
1733.35,-0.0326784443356547
1729.36,-0.027710557101539357
1725.36,-0.028397830723956644
1721.36,-0.033331596983804564
1717.36,-0.03531963110916801
1713.37,-0.03361216833861118
1709.37,-0.034824438756849235
1705.37,-0.039971191704887846
1701.37,-0.0411328651048141
1697.37,-0.033913868185676724
1693.38,-0.025141032491356456
1689.38,-0.018791514244914216
1685.38,-0.011841518306242929
1681.38,-0.0025211757058598294
1677.39,0.0068087076444294445
1673.39,0.015444679408555984
1669.39,0.024452770985779332
1665.39,0.03156331179757015
1661.4,0.03262335740992608
1657.4,0.02678285493516129
1653.4,0.01916323002172577
1649.4,0.016664004283388323
1645.41,0.017451527127655915
1641.41,0.015795949890298776
1637.41,0.010753482066709869
1633.41,0.004978171388006929
1629.42,6.919255806252245e-05
1625.42,-0.0042889954503571096
1621.42,-0.007448875558232926
1617.42,-0.007820799515712441
1613.42,-0.005584707230582173
1609.43,-0.0024041430142015888
1605.43,0.0004792831264788869
1601.43,0.002484485334263438
1597.43,0.0039346399594121576
1593.44,0.0060580071780703265
1589.44,0.009040712190062791
1585.44,0.011045707687868264
1581.44,0.011227845995713547
1577.45,0.012189643086868228
1573.45,0.016167564769079282
1569.45,0.020090043060361343
1565.45,0.02000561702694373
1561.46,0.018119601441521846
1557.46,0.020714205140973052
1553.46,0.025446038052658007
1549.46,0.023697517669505355
1545.47,0.013516924553252471
1541.47,0.003443949443413627
1537.47,0.0026837330380844876
1533.47,0.004532890740980858
1529.47,0.00010209334919741853
1525.48,-0.009056622176306234
1521.48,-0.015231490240151094
1517.48,-0.017302656502871494
1513.48,-0.020105718229376263
1509.49,-0.02194480502637304
1505.49,-0.017469379198606166
1501.49,-0.009730891037427587
1497.49,-0.004855061267156381
1493.5,-0.0018957513187051536
1489.5,0.003598944257183191
1485.5,0.010726192067475701
1481.5,0.015030549986157743
1477.51,0.016187153556883854
1473.51,0.017981856776919256
1469.51,0.02100517036685917
1465.51,0.0207629413285257
1461.52,0.01614386428878118
1457.52,0.013624340867730109
1453.52,0.018457910581592678
1449.52,0.024957423251998317
1445.53,0.026185857253364114
1441.53,0.0219119448174629
1437.53,0.01673028193516251
1433.53,0.013569398057494006
1429.53,0.010667004151225096
1425.54,0.006716654125452838
1421.54,0.003970552403174704
1417.54,0.0045694370030577094
1413.54,0.0068690578711684755
1409.55,0.008147872488625432
1405.55,0.007713682241036933
1401.55,0.0069874625689250736
1397.55,0.008268296463234077
1393.56,0.012567636914126712
1389.56,0.01780481610948722
1385.56,0.020354147542928046
1381.56,0.018625960695277256
1377.57,0.01454018628895147
1373.57,0.011513318822604285
1369.57,0.011033258871319868
1365.57,0.012186760277661062
1361.58,0.013762554986892835
1357.58,0.01493616501461005
1353.58,0.014586063208776784
1349.58,0.011857914477685954
1345.58,0.007741909836481889
1341.59,0.00510036980812708
1337.59,0.005772676816918218
1333.59,0.008325621945458689
1329.59,0.010093111839093762
1325.6,0.01012703191045122
1321.6,0.009513034802938743
1317.6,0.009717286532410281
1313.6,0.011253507218562685
1309.61,0.013773975445891783
1305.61,0.016818376611583103
1301.61,0.020131192218140574
1297.61,0.02344644130902842
1293.62,0.026401927741890464
1289.62,0.028882379348946188
1285.62,0.03120349192289564
1281.62,0.03371640900204579
1277.63,0.03633570745215148
1273.63,0.0386291555811074
1269.63,0.04027432960640293
1265.63,0.04127912642972322
1261.63,0.041914884798363465
1257.64,0.04259291291128936
1253.64,0.0437723973879495
1249.64,0.045780384308012706
1245.64,0.048434949740514155
1241.65,0.050835623648658165
1237.65,0.051809874732876085
1233.65,0.05090696435397969
1229.65,0.04884932725652949
1225.66,0.04617473002291389
1221.66,0.04044196118405646
1217.66,0.028361201172720785
1213.66,0.026207380631603217
1209.67,0.03369979389425953
1205.67,0.03625612057158689
1201.67,0.03536000662091257
1197.67,0.032426496985775474
1193.68,0.028065817431300197
1189.68,0.02378891101043458
1185.68,0.02129842929395926
1181.68,0.021063881332108313
1177.68,0.022340630053891766
1173.69,0.024301029722138164
1169.69,0.02640029836137394
1165.69,0.027814207791322494
1161.69,0.02763336561046014
1157.7,0.025948900850599282
1153.7,0.023932233298574634
1149.7,0.022451574232536
1145.7,0.021090792185132184
1141.71,0.018890832142311888
1137.71,0.015706781183252628
1133.71,0.012475870878755003
1129.71,0.010364211833275534
1125.72,0.009934019051542363
1121.72,0.010941368799450523
1117.72,0.012556254681600376
1113.72,0.013930931215508997
1109.73,0.01492811253814463
1105.73,0.016245051652248408
1101.73,0.018592882771019486
1097.73,0.02172434992223802
1093.74,0.02438118416434439
1089.74,0.025295476273408384
1085.74,0.024475263185757264
1081.74,0.02352408719072772
1077.74,0.024259139478117923
1073.75,0.02684348708544081
1069.75,0.02945021397831653
1065.75,0.030115753166983034
1061.75,0.02874184964279477
1057.76,0.026803243286419844
1053.76,0.025660498124263367
1049.76,0.025715477336643602
1045.76,0.026700337870348187
1041.77,0.02797067386853301
1037.77,0.02861012266137643
1033.77,0.02808682259710504
1029.77,0.026886220867735188
1025.78,0.02585636820711213
1021.78,0.025045810298112547
1017.78,0.023891377201450077
1013.78,0.02238635674216561
1009.79,0.021084945712477446
1005.79,0.0199207727278526
1001.79,0.018090227845467988
997.79,0.015412183147022841
993.79,0.012911957855164306
989.8,0.01158925229074152
985.8,0.011233794249371154
981.8,0.010974226513711792
977.8,0.010393067707794147
973.81,0.009543491180203641
969.81,0.008381428936866216
965.81,0.006662367473115383
961.81,0.004001892869165493
957.82,-0.00013638035729608353
953.82,-0.005670855264587438
949.82,-0.010706888958422145
945.82,-0.012243347017530968
941.83,-0.00920039384492229
937.83,-0.0038712303137913573
933.83,0.0006541229606080445
929.83,0.0034363829139347282
925.84,0.005182373497831072
921.84,0.00606643225053749
917.84,0.005776865713670785
913.84,0.004901011441281508
909.84,0.00457481238345071
905.85,0.005033888591664665
901.85,0.005767808485837328
897.85,0.006683757687768247
893.85,0.007693197247994114
889.86,0.007817188977362938
885.86,0.006207603285489839
881.86,0.003776531018487423
877.86,0.0022736216789470323
873.87,0.0019098710011962467
869.87,0.0015271867245625435
865.87,0.0007627842882738309
861.87,0.00032321634215125294
857.88,0.00047138059871763144
853.88,0.0012711130750530167
849.88,0.0035021540671772294
845.88,0.00707472182251075
841.89,0.009362714140141781
837.89,0.008031638944669958
833.89,0.004395468841948594
829.89,0.001271385628343405
825.89,-0.0010004711218610934
821.9,-0.0035337126780839515
817.9,-0.0042365268745555365
813.9,0.0008831778022620265
809.9,0.010596728008233039
805.91,0.018714570380719567
801.91,0.021322110762297883
797.91,0.02008017219537353
793.91,0.02045420666030484
789.92,0.027956848830823083
785.92,0.04482251341783161
781.92,0.0655278732676855
777.92,0.07871459370665002
773.93,0.0664027712801677
769.93,0.028599009959114907
765.93,0.015503047758709032
761.93,-0.060874117514085
757.94,-0.10359084517422701
753.94,0.08205003958737678
749.94,0.0721543856159289
745.94,-0.04537940856545608
741.95,-0.11340238683091097
737.95,-0.11937339463543961
733.95,-0.2029472641626091
729.95,-0.23007584111367763
725.95,-0.2912736110683296
721.96,-0.1355872887913337
717.96,-0.07838806026166956
713.96,-0.09376308133563566
709.96,-0.12350538913581752
705.97,-0.1684476812634021
701.97,-0.3043952634789495
697.97,-0.3030945251973723
693.97,-0.4307573488381289
689.98,-0.3129418249492697
685.98,-0.5985186848401781
681.98,-0.2852339941990299
677.98,-0.1689788525066418
673.99,0.1045300910071986
669.99,0.14481391520950618
665.99,0.07115097454143544
661.99,0.26407358355598753
658.0,0.20815484022056716
654.0,0.1561385197686896
650.0,-0.032331274990504325
