wavenumber,transmittance
4000.0,-0.008851998127745045
3996.0,-0.01111111331673947
3992.0,-0.013494002614114646
3988.01,-0.016294983756664164
3984.01,-0.017821227163542737
3980.01,-0.016664605079500492
3976.01,-0.014016738230315946
3972.02,-0.011453731896210512
3968.02,-0.008611032841779937
3964.02,-0.005238788646920532
3960.02,-0.0033778855101683413
3956.03,-0.004951228483054051
3952.03,-0.008574263071825027
3948.03,-0.011073957585077563
3944.03,-0.011768589669854992
3940.04,-0.012038541533167814
3936.04,-0.012150867158883662
3932.04,-0.011737259642670701
3928.04,-0.011726605199700342
3924.05,-0.012675034789628432
3920.05,-0.012743734415410388
3916.05,-0.01109016544665946
3912.05,-0.011299150701829658
3908.05,-0.01699009186730294
3904.06,-0.025425933565661498
3900.06,-0.028852822359324678
3896.06,-0.026154599881568524
3892.06,-0.024465926899935583
3888.07,-0.027376281647835937
3884.07,-0.030929912398187445
3880.07,-0.031210107755677972
3876.07,-0.030140458045663336
3872.08,-0.03030314481269777
3868.08,-0.030171805102250843
3864.08,-0.02783857381004398
3860.08,-0.024988599899840765
3856.09,-0.023847371793681467
3852.09,-0.024197884589251026
3848.09,-0.025353055294828813
3844.09,-0.02768631925121784
3840.1,-0.030011219788372324
3836.1,-0.02936795964808099
3832.1,-0.02678362144062041
3828.1,-0.027287611618276853
3824.11,-0.03112309542840461
3820.11,-0.031839831889364976
3816.11,-0.02558362542188799
3812.11,-0.01890595486013013
3808.11,-0.017897901655299843
3804.12,-0.01938984318183484
3800.12,-0.01637510021528963
3796.12,-0.009821956526598008
3792.12,-0.00668622084897474
3788.13,-0.008645745071733175
3784.13,-0.011960075264289797
3780.13,-0.013498239835248298
3776.13,-0.01409545039938778
3772.14,-0.015358937986559539
3768.14,-0.016947844653499154
3764.14,-0.01881846355249329
3760.14,-0.02286160620251433
3756.15,-0.030368114222153797
3752.15,-0.039662975135908766
3748.15,-0.04698814821462018
3744.15,-0.05031016323221291
3740.16,-0.050117322657339126
3736.16,-0.0465744642565037
3732.16,-0.04049280366858428
3728.16,-0.034720239212793456
3724.16,-0.03180141725001158
3720.17,-0.032097305662155934
3716.17,-0.03401170228201424
3712.17,-0.03407045860587919
3708.17,-0.028980487655521327
3704.18,-0.020945101498121246
3700.18,-0.016825670381451198
3696.18,-0.02027244396974465
3692.18,-0.026921668223451073
3688.19,-0.02832734901026817
3684.19,-0.023649944451572227
3680.19,-0.020118415292890983
3676.19,-0.020550432655900862
3672.2,-0.018679694936615122
3668.2,-0.011173061574465595
3664.2,-0.006529041580139479
3660.2,-0.01320644636452822
3656.21,-0.031191326255004065
3652.21,-0.04952859446530168
3648.21,-0.05274548708465914
3644.21,-0.042488789579587974
3640.21,-0.03279581304234293
3636.22,-0.029927554604153903
3632.22,-0.031417540141810064
3628.22,-0.03209322511394362
3624.22,-0.030049676005345992
3620.23,-0.027337359440458127
3616.23,-0.024952746551938063
3612.23,-0.021310689595161185
3608.23,-0.016103091084304036
3604.24,-0.012682789074744408
3600.24,-0.014382784191210645
3596.24,-0.02074717889511233
3592.24,-0.027464856894121863
3588.25,-0.029391688267062892
3584.25,-0.02565812572052388
3580.25,-0.02046056836504449
3576.25,-0.018187872043980376
3572.26,-0.019871532488833256
3568.26,-0.02292643731285375
3564.26,-0.02366328653136372
3560.26,-0.021689342709855588
3556.26,-0.019734836054706033
3552.27,-0.019151937894635866
3548.27,-0.018397374931231787
3544.27,-0.01596528088090317
3540.27,-0.013342078541145759
3536.28,-0.012956168557783167
3532.28,-0.014516993286865641
3528.28,-0.015136908102539127
3524.28,-0.01253757532971036
3520.29,-0.00796364033821836
3516.29,-0.005232314845135431
3512.29,-0.006833271709895799
3508.29,-0.01124094335794689
3504.3,-0.0136850211970762
3500.3,-0.010783888497728772
3496.3,-0.00480818786932479
3492.3,-0.0014697217224726574
3488.31,-0.003583070419785621
3484.31,-0.00848630084298011
3480.31,-0.011484029432341638
3476.31,-0.01083561673824402
3472.32,-0.008525338590636389
3468.32,-0.007167934019718973
3464.32,-0.00799886379004564
3460.32,-0.010773439299784394
3456.32,-0.014089585011945549
3452.33,-0.01622722705040282
3448.33,-0.01636077795390465
3444.33,-0.01487759890526194
3440.33,-0.012065913006554753
3436.34,-0.00795506821252589
3432.34,-0.0037034608037641494
3428.34,-0.0015810885230473914
3424.34,-0.002580981194250702
3420.35,-0.004964725663225398
3416.35,-0.006113660831782771
3412.35,-0.005116131446528996
3408.35,-0.0029048421093707272
3404.36,-0.0009650964748801703
3400.36,-0.0007461892289509203
3396.36,-0.003103976667421791
3392.36,-0.006997495808204121
3388.37,-0.009688323393092568
3384.37,-0.009535118768501018
3380.37,-0.007768785717062897
3376.37,-0.006483949898936012
3372.37,-0.0062384529811393245
3368.38,-0.006608503636569249
3364.38,-0.0074425133242606075
3360.38,-0.007891992277641235
3356.38,-0.006007007547449325
3352.39,-0.0013434073253858776
3348.39,0.003299544080140042
3344.39,0.005053001153762889
3340.39,0.004510798309362712
3336.4,0.004241235048214217
3332.4,0.004945919445072028
3328.4,0.005168337979774146
3324.4,0.004156475735792781
3320.41,0.0025729207132809823
3316.41,0.0008206321314561289
3312.41,-0.0009541525598937492
3308.41,-0.0014281575161066568
3304.42,0.0005447910033823007
3300.42,0.0030587160072797423
3296.42,0.0026051849232020564
3292.42,-0.0012598539222541255
3288.42,-0.005144695087632951
3284.43,-0.006465004359823209
3280.43,-0.0065415597928146305
3276.43,-0.007517693443807153
3272.43,-0.009000052346390926
3268.44,-0.009667650508808679
3264.44,-0.01001072169611974
3260.44,-0.011148649447728129
3256.44,-0.012301265539808197
3252.45,-0.011831253688866231
3248.45,-0.010138878399146355
3244.45,-0.009223194029784354
3240.45,-0.0096895699032043
3236.46,-0.010083157484045454
3232.46,-0.009134867034210951
3228.46,-0.007357269776727425
3224.46,-0.006170262288464637
3220.47,-0.006300220696830564
3216.47,-0.007300566304860097
3212.47,-0.008250173483479464
3208.47,-0.008822558654272292
3204.47,-0.009570553083328482
3200.48,-0.010808343084889621
3196.48,-0.011576459913559687
3192.48,-0.010664298192112221
3188.48,-0.008675256671726706
3184.49,-0.0077037600893238994
3180.49,-0.008576916832354215
3176.49,-0.009752909049768822
3172.49,-0.0096416881320602
3168.5,-0.00875432812261807
3164.5,-0.008418884984838091
3160.5,-0.008539677007730609
3156.5,-0.008091623539362635
3152.51,-0.007165487447302343
3148.51,-0.006897477798004998
3144.51,-0.007659652449263402
3140.51,-0.008700321872802296
3136.52,-0.009586693248301364
3132.52,-0.010737414897382136
3128.52,-0.012140162200733188
3124.52,-0.01263987481512687
3120.53,-0.011296415850294192
3116.53,-0.008977809334554316
3112.53,-0.0077350995052186625
3108.53,-0.008582874235658799
3104.53,-0.010392189126741983
3100.54,-0.011204964604426723
3096.54,-0.01036121598396138
3092.54,-0.008870420236297444
3088.54,-0.007725037267486863
3084.55,-0.006731673291352509
3080.55,-0.005243618088670344
3076.55,-0.00347371359961144
3072.55,-0.002295035548321042
3068.56,-0.0019497941466020893
3064.56,-0.0018930203023778472
3060.56,-0.0018779488971803378
3056.56,-0.0023429608533487786
3052.57,-0.003609769675495752
3048.57,-0.005416710048764168
3044.57,-0.007390256937040606
3040.57,-0.009299940704876528
3036.58,-0.010514265112972002
3032.58,-0.009925166284529816
3028.58,-0.00708759346018259
3024.58,-0.0029900743751144626
3020.58,0.0007991575044604127
3016.59,0.0033448179643191106
3012.59,0.0047143215042120545
3008.59,0.005831313267850219
3004.59,0.007839578783184677
3000.6,0.011077486594156659
2996.6,0.014797217533204267
2992.6,0.018224261484628926
2988.6,0.021590138630412335
2984.61,0.025539599619055033
2980.61,0.029725234524111736
2976.61,0.03281818675817957
2972.61,0.033918538169253505
2968.62,0.03329404848890211
2964.62,0.03176278774134509
2960.62,0.02997374414718257
2956.62,0.02844085231595848
2952.63,0.027587529542607618
2948.63,0.02733682474087362
2944.63,0.02713303196015108
2940.63,0.026638877392913252
2936.63,0.025947016255901425
2932.64,0.024945554158149284
2928.64,0.023179456020094448
2924.64,0.02073566700766545
2920.64,0.01865468525343687
2916.65,0.017692162438250836
2912.65,0.01716967081095446
2908.65,0.015963205069875284
2904.65,0.013891919920531935
2900.66,0.011634764220860582
2896.66,0.009942207127134211
2892.66,0.00917577165829904
2888.66,0.009226368329292092
2884.67,0.009546419348993338
2880.67,0.009483773168425878
2876.67,0.008843082361085337
2872.67,0.007906503074933558
2868.68,0.006883767827140636
2864.68,0.005795327606219185
2860.68,0.004990399293419427
2856.68,0.005113388323709025
2852.68,0.0061944749722582584
2848.69,0.007316338835999667
2844.69,0.007690272749074828
2840.69,0.007421381189709232
2836.69,0.0067830376534042565
2832.7,0.005765259784278134
2828.7,0.00473664420189418
2824.7,0.004539247247819114
2820.7,0.005279188855472369
2816.71,0.005910471824522014
2812.71,0.0057319155701891
2808.71,0.005483304551422456
2804.71,0.0060012048232178355
2800.72,0.006586651026174069
2796.72,0.005997573421315671
2792.72,0.004484502706685822
2788.72,0.003511754324851858
2784.73,0.0036089892758939205
2780.73,0.0038651163923754395
2776.73,0.0037172137617893734
2772.73,0.0038797632876077567
2768.74,0.0049554663345721915
2764.74,0.00617645125956617
2760.74,0.0062968190918418175
2756.74,0.005156118500796385
2752.74,0.0037545761338570096
2748.75,0.0030355103571943834
2744.75,0.003129731470208846
2740.75,0.003603688758631804
2736.75,0.0040079084955479145
2732.76,0.004206652575553589
2728.76,0.004367509784962765
2724.76,0.0046800577434001085
2720.76,0.005102795055260191
2716.77,0.005482113881316093
2712.77,0.005812242773443619
2708.77,0.006183387681268715
2704.77,0.006518425442238877
2700.78,0.006627861250080672
2696.78,0.006579900729806264
2692.78,0.0067319440712206545
2688.78,0.007300893577519415
2684.79,0.00809782117403134
2680.79,0.008829768003453189
2676.79,0.009537500512882298
2672.79,0.01057107684628199
2668.79,0.01214056242313462
2664.8,0.013940730437259942
2660.8,0.015310245017969813
2656.8,0.01580892812491755
2652.8,0.01564051284322982
2648.81,0.01546134333363098
2644.81,0.015634516430657355
2640.81,0.015815942703812976
2636.81,0.01546335775948634
2632.82,0.0146316075579984
2628.82,0.014063317379339394
2624.82,0.014514729464587072
2620.82,0.016097315385497676
2616.83,0.018188661696769297
2612.83,0.01967854064844705
2608.83,0.019667032474098404
2604.83,0.018039571072549696
2600.84,0.015026008229688196
2596.84,0.0108166032047077
2592.84,0.006422971563423775
2588.84,0.004212723971795097
2584.84,0.00567528594413004
2580.85,0.00857845573891829
2576.85,0.009158525450464255
2572.85,0.006921826257812623
2568.85,0.005064817179250098
2564.86,0.005765287194276018
2560.86,0.0068416233120344744
2556.86,0.005615643882156733
2552.86,0.0029422023740831808
2548.87,0.0013206330211910245
2544.87,0.0017186869034865873
2540.87,0.003586634444853652
2536.87,0.006646281663095005
2532.88,0.009819894037048277
2528.88,0.010387590800365349
2524.88,0.00648760404322268
2520.88,-4.678182858521181e-05
2516.89,-0.0053329859121802525
2512.89,-0.0078918349979318
2508.89,-0.008516941853932798
2504.89,-0.006908712361879444
2500.89,-0.0026502759879634616
2496.9,0.002016530701499276
2492.9,0.004007852149900456
2488.9,0.0031701432570131922
2484.9,0.002275321091479765
2480.91,0.0032251211231599432
2476.91,0.005585279892077504
2472.91,0.008454820088300508
2468.91,0.011424979642341068
2464.92,0.013990412152208411
2460.92,0.015351059550915114
2456.92,0.01517468589444814
2452.92,0.014104146738583389
2448.93,0.012701316469136283
2444.93,0.010729524988320102
2440.93,0.008136583787530809
2436.93,0.005164544025234811
2432.94,0.0022454895721841107
2428.94,0.0002246836689047231
2424.94,-0.00013643954446054297
2420.94,0.0005963831099762527
2416.95,0.0008316155853372552
2412.95,-0.00019597660821798688
2408.95,-0.0013309559363432512
2404.95,-0.0011447198588127282
2400.95,-0.00020681556596852113
2396.96,-7.428576168734546e-06
2392.96,-0.0010029584569094703
2388.96,-0.0022555998930131813
2384.96,-0.002332271117007136
2380.97,-0.00041604449923539257
2376.97,0.0029202729953039285
2372.97,0.005268845442166462
2368.97,0.004378013096914079
2364.98,0.0014944335293455091
2360.98,0.0005056894400271438
2356.98,0.0023369453113966936
2352.98,0.003978970706763762
2348.99,0.0035004482018585804
2344.99,0.0020390885408768985
2340.99,0.002039070047023081
2336.99,0.00435280007771591
2333.0,0.0072460063198677704
2329.0,0.008748332506857607
2325.0,0.007983972287915055
2321.0,0.004817798963438909
2317.0,0.0003435073266833547
2313.01,-0.002709760021209118
2309.01,-0.0021507770767245893
2305.01,0.0011786379651785254
2301.01,0.00511594442630885
2297.02,0.008378365189852258
2293.02,0.009793706391752737
2289.02,0.008292993859689159
2285.02,0.004436474351350617
2281.03,0.0023361889564624937
2277.03,0.006710636964966429
2273.03,0.014036303288682307
2269.03,0.016185246215704593
2265.04,0.007987074580375963
2261.04,-0.00858226394487039
2257.04,-0.025389431085036863
2253.04,-0.03691699353280658
2249.05,-0.03343179794202429
2245.05,-0.014272473275492295
2241.05,0.00811397028902672
2237.05,0.02637930887522426
2233.05,0.03847649328580299
2229.06,0.04236853899049184
2225.06,0.03525642020094037
2221.06,0.02131579180811409
2217.06,0.00987906784769529
2213.07,0.003685872032386267
2209.07,0.005362570468109274
2205.07,0.012377733901356068
2201.07,0.021354836208805426
2197.08,0.02587722173847727
2193.08,0.02344281285897007
2189.08,0.007987743636665696
2185.08,-0.01992233614441028
2181.09,-0.04655356823906942
2177.09,-0.05433223978155548
2173.09,-0.03090257374350931
2169.09,0.007145548708822624
2165.1,0.029356403299596483
2161.1,0.044243965019320236
2157.1,0.07119820275728135
2153.1,0.09675025725134426
2149.11,0.09174751177371773
2145.11,0.06483903471832589
2141.11,0.04001757384789807
2137.11,0.022894953456454276
2133.11,0.011581666117634304
2129.12,0.006463162488407969
2125.12,0.004823618369694543
2121.12,0.0063055417501658275
2117.12,0.005372777452856469
2113.13,-0.006693921516901909
2109.13,-0.028613285767808114
2105.13,-0.045193498946645545
2101.13,-0.043536990643925084
2097.14,-0.034186453316155066
2093.14,-0.03127211552285657
2089.14,-0.031986260041686594
2085.14,-0.02590506019050789
2081.15,-0.013303480621012347
2077.15,0.0024866054126688178
2073.15,0.022566028787417442
2069.15,0.03618529603471052
2065.16,0.03041555977138145
2061.16,0.01255840947103343
2057.16,0.008081264671367881
2053.16,0.015282660949785705
2049.16,0.021280951705862125
2045.17,0.04430043696094389
2041.17,0.08312647179570483
2037.17,0.08690385631266564
2033.17,0.07179060236704043
2029.18,0.03797370316104423
2025.18,-0.008944519296939377
2021.18,-0.018702723749614767
2017.18,-0.012802615049028115
2013.19,-0.02442602074301455
2009.19,-0.014394338365258863
2005.19,0.009707370228497932
2001.19,0.02873916623116059
1997.2,0.036053519451688304
1993.2,0.024613233486971958
1989.2,0.0012361409564871119
1985.2,-0.03271180601299949
1981.21,-0.06597476323810952
1977.21,-0.0463724105463543
1973.21,-0.024008387279686794
1969.21,-0.009477469331131302
1965.21,0.00035188948094470006
1961.22,0.012020258870358024
1957.22,0.01458864659496498
1953.22,-0.001372988802562996
1949.22,-0.03273241375174732
1945.23,-0.047036834773270704
1941.23,-0.03388575460727666
1937.23,-0.026402911275532272
1933.23,-0.03808225244289206
1929.24,-0.044566928768716825
1925.24,-0.02787980051950871
1921.24,-0.008022033025529084
1917.24,-0.0011403602307607594
1913.25,-0.0018534090742124117
1909.25,-0.002599409836520878
1905.25,-0.006752191777646971
1901.25,-0.01606598920159126
1897.26,-0.021292446446488332
1893.26,-0.01609996180287397
1889.26,-0.008727809118421774
1885.26,-0.005375389934001141
1881.26,-0.0038955679601900333
1877.27,-0.0036485822913387396
1873.27,-0.008423951959864125
1869.27,-0.016210948635067505
1865.27,-0.01749454694892056
1861.28,-0.011101151462023553
1857.28,-0.008126814222149581
1853.28,-0.013110071287172101
1849.28,-0.018394660884823173
1845.29,-0.016876940784081345
1841.29,-0.014496254929499205
1837.29,-0.017265076922261705
1833.29,-0.020838560145325067
1829.3,-0.018994016952621408
1825.3,-0.01456975782676915
1821.3,-0.012759969972105146
1817.3,-0.012592153510058133
1813.31,-0.011830737601359116
1809.31,-0.01233407475882781
1805.31,-0.01601626051048022
1801.31,-0.020513261035163093
1797.32,-0.021808243218753166
1793.32,-0.019917981659841225
1789.32,-0.017524057283873042
1785.32,-0.01594237733796736
1781.32,-0.01615807327932356
1777.33,-0.01945818902207571
1773.33,-0.023993812552126126
1769.33,-0.02447158296462333
1765.33,-0.02052291208624721
1761.34,-0.018730507046791328
1757.34,-0.022801661858820526
1753.34,-0.02874799716657671
1749.34,-0.030852335598698898
1745.35,-0.031147495912033515
1741.35,-0.03395019231765564
1737.35,-0.03610319409251342
1733.35,-0.03237241613377116
1729.36,-0.027415507580092372
1725.36,-0.02805589782555697
1721.36,-0.03283999761618474
1717.36,-0.03465320059555357
1713.37,-0.03289824288705034
1709.37,-0.034226317603755385
1705.37,-0.03954915404761106
1701.37,-0.04078098845296518
1697.37,-0.033473581005609994
1693.38,-0.02460317468177145
1689.38,-0.01825416681419579
1685.38,-0.011340923428953043
1681.38,-0.0019601745850824845
1677.39,0.007548270051080275
1673.39,0.016372973756310215
1669.39,0.025472261968278648
1665.39,0.032556457483754984
1661.4,0.03351764650110825
1657.4,0.027551112357188358
1653.4,0.019830008594470906
1649.4,0.017297542031321278
1645.41,0.01809206825204998
1641.41,0.016457714559669843
1637.41,0.0114827588279078
1633.41,0.005831168689604427
1629.42,0.0010211949340813709
1625.42,-0.0033577007388700883
1621.42,-0.006665429538636379
1617.42,-0.0072199883818994046
1613.42,-0.005104875477198949
1609.43,-0.001961397394527206
1605.43,0.0009582184574585886
1601.43,0.0030572577123034947
1597.43,0.004617129622879357
1593.44,0.00681713270216578
1589.44,0.00984409325421198
1585.44,0.011909557586412031
1581.44,0.012193369432804767
1577.45,0.013258992851181851
1573.45,0.01729479723354147
1569.45,0.021258405366666927
1565.45,0.021277359939404834
1561.46,0.01957569569844045
1557.46,0.022319363726746852
1553.46,0.027059603845753274
1549.46,0.02523611771792475
1545.47,0.014974919981464233
1541.47,0.004840823437134684
1537.47,0.0040409356125304385
1533.47,0.005876392798913277
1529.47,0.0014668511438855752
1525.48,-0.00763681367328535
1521.48,-0.013763503928624743
1517.48,-0.015851286146325944
1513.48,-0.01875276811744682
1509.49,-0.020745671280668718
1505.49,-0.01641507147480143
1501.49,-0.008771187304037156
1497.49,-0.003965741030199969
1493.5,-0.0010796259661301696
1489.5,0.0043571232569087695
1485.5,0.0114673180238214
1481.5,0.01578534561209361
1477.51,0.016962696681325343
1473.51,0.01877076459927135
1469.51,0.021797793695715856
1465.51,0.021565271842380544
1461.52,0.01699294960558447
1457.52,0.014565664893801358
1453.52,0.019477313438416702
1449.52,0.025985142573903948
1445.53,0.027171956566197447
1441.53,0.022860337052329933
1437.53,0.017682848214000985
1433.53,0.01455856412435929
1429.53,0.011692228914653643
1425.54,0.007753307377296785
1421.54,0.004980243494016205
1417.54,0.005527100195130828
1413.54,0.007790170833578948
1409.55,0.009067373448237492
1405.55,0.008636981788680734
1401.55,0.007874380802923693
1397.55,0.00908305643983743
1393.56,0.013337283526916772
1389.56,0.01859093393770471
1385.56,0.021179693100890032
1381.56,0.01946833018853756
1377.57,0.015375864347728543
1373.57,0.01233449927583704
1369.57,0.011826776216926047
1365.57,0.012931720053012245
1361.58,0.014457336171002155
1357.58,0.01560215939096608
1353.58,0.015235987453298658
1349.58,0.012486133112430919
1345.58,0.008348145497483202
1341.59,0.005695863844053101
1337.59,0.006353332115453376
1333.59,0.008866786157189888
1329.59,0.010588238188486154
1325.6,0.010611509712180927
1321.6,0.010034733367143809
1317.6,0.010293870041503207
1313.6,0.011868853282877883
1309.61,0.0144020565102564
1305.61,0.017434436070362182
1301.61,0.020710776636702184
1297.61,0.02397520418261108
1293.62,0.026889873392777996
1289.62,0.029359930735947774
1285.62,0.03170582257234908
1281.62,0.03427400823053156
1277.63,0.03696382716262085
1273.63,0.03931046373831562
1269.63,0.040956284416670305
1265.63,0.04190553341294724
1261.63,0.04247306757525791
1257.64,0.04312748690052925
1253.64,0.0443513745242094
1249.64,0.04645129679419861
1245.64,0.04920494071730895
1241.65,0.05168986478473214
1237.65,0.05275904089413852
1233.65,0.05202904949172395
1229.65,0.05029542938335277
1225.66,0.04813656525411947
1221.66,0.04305708855255941
1217.66,0.03150674731864633
1213.66,0.029404049048182168
1209.67,0.036342004276423756
1205.67,0.0381677218818558
1201.67,0.03669172137734014
1197.67,0.03336668452211372
1193.68,0.02874840980867993
1189.68,0.02430992736777063
1185.68,0.021754673843683653
1181.68,0.021545332598331142
1177.68,0.022886693881676176
1173.69,0.02489511137407846
1169.69,0.02701727673967482
1165.69,0.02844989755423291
1161.69,0.02828119697891402
1157.7,0.02657826450965204
1153.7,0.024511070822488858
1149.7,0.02297137885144284
1145.7,0.021555219230562826
1141.71,0.01930209801867169
1137.71,0.016084135314415306
1133.71,0.012866035734146294
1129.71,0.010799547580323015
1125.72,0.010382812652206197
1121.72,0.011326539304862451
1117.72,0.01283260198690907
1113.72,0.014128363117618309
1109.73,0.015111801103754475
1105.73,0.016452353421118403
1101.73,0.018823968483736613
1097.73,0.02198188802589561
1093.74,0.02469163265766659
1089.74,0.025676289794985124
1085.74,0.024898505822728897
1081.74,0.023945890737213635
1077.74,0.024685298894035677
1073.75,0.02733006450684016
1069.75,0.03001836522896202
1065.75,0.030695953598976308
1061.75,0.029246441305908588
1057.76,0.027230973726511884
1053.76,0.02608233060990465
1049.76,0.02617120730771068
1045.76,0.027160427172458826
1041.77,0.028402199289956055
1037.77,0.029025212513516335
1033.77,0.028500706611462423
1029.77,0.027277425796272313
1025.78,0.02620829824070304
1021.78,0.025389069220969594
1017.78,0.02426254127298657
1013.78,0.022775620256832354
1009.79,0.02146535500570241
1005.79,0.020296714597978664
1001.79,0.01847325567029723
997.79,0.01577663987262663
993.79,0.013227097253080458
989.8,0.011880973666221687
985.8,0.011563389877276446
981.8,0.011360736473184726
977.8,0.010801316233810539
973.81,0.00994359067926776
969.81,0.00876551118492729
965.81,0.00699998085789651
961.81,0.004244580197568605
957.82,1.9278298923515458e-05
953.82,-0.0055225402613924245
949.82,-0.01051534501247198
945.82,-0.012064906635988814
941.83,-0.009131659033143048
937.83,-0.003916335676186634
933.83,0.0006181623573477124
929.83,0.003558766885625564
925.84,0.005511415866770661
921.84,0.006528970300396689
917.84,0.006267080603887403
913.84,0.005367026369551917
909.84,0.005027733176451698
905.85,0.0054933186263100686
901.85,0.006220515524042831
897.85,0.0071049956071157945
893.85,0.008068342003578711
889.86,0.008111545481509158
885.86,0.006370515455696923
881.86,0.003866860309679001
877.86,0.0025475028247993973
873.87,0.002637587350896824
869.87,0.0026530062556548266
865.87,0.0018543702308219528
861.87,0.0009839129250497902
857.88,0.0008088780539440496
853.88,0.0018110133739857315
849.88,0.004645201135759242
845.88,0.00868565476151623
841.89,0.010995014631174391
837.89,0.009549920970957883
833.89,0.006163717534340661
829.89,0.0036060296716725025
825.89,0.0015838081177288951
821.9,-0.001376972171807045
817.9,-0.0027165000232733244
813.9,0.0022125375861775584
809.9,0.011651920337615723
805.91,0.018276711237882853
801.91,0.018140407185478852
797.91,0.01483362839323299
793.91,0.015585254371252466
789.92,0.024944581847350517
785.92,0.043647303867485665
781.92,0.06602157082749588
777.92,0.07971987559345406
773.93,0.06260836636452705
769.93,0.03040392008081061
765.93,-0.008512808772696223
761.93,-0.05590701312516777
757.94,-0.08341523865529155
753.94,0.05987138804478531
749.94,0.026654177304800908
745.94,-0.08306917846259865
741.95,-0.12769177083312766
737.95,-0.12683364037582445
733.95,-0.1657111237048573
729.95,-0.14319263108628177
725.95,-0.19408195911167003
721.96,-0.033447550759804656
717.96,0.007601107972726284
713.96,-0.01638841554250675
709.96,-0.034323506780336244
705.97,-0.08056643908824729
701.97,-0.24681982912292683
697.97,-0.28606537928854503
693.97,-0.43845612411110146
689.98,-0.335068159178642
685.98,-0.628887718894551
681.98,-0.3297908314534963
677.98,-0.12733173653061322
673.99,0.1783344251655109
669.99,0.19161422358598768
665.99,0.07754953408293579
661.99,0.23051806922357182
658.0,0.2405498995656044
654.0,0.18761883646962518
650.0,-0.05679264957153327
