wavenumber,transmittance
4000.0,-0.008715957941641667
3996.0,-0.009418540605312997
3992.0,-0.010269064813754399
3988.01,-0.012138009485889327
3984.01,-0.01337265770692785
3980.01,-0.012125340655651646
3976.01,-0.009371627914807154
3972.02,-0.0070758285294186835
3968.02,-0.005251515262928384
3964.02,-0.003181193085854462
3960.02,-0.0019359282518389698
3956.03,-0.003112283728368099
3952.03,-0.005930175978406907
3948.03,-0.007953228580755537
3944.03,-0.008661786261244184
3940.04,-0.00936708172088001
3936.04,-0.0105207743658183
3932.04,-0.011855529954496196
3928.04,-0.01392981774597682
3924.05,-0.0167354578200874
3920.05,-0.01800113709215693
3916.05,-0.01667477609626476
3912.05,-0.01632717334304331
3908.05,-0.02066591127723684
3904.06,-0.02729478757179233
3900.06,-0.029120654239524202
3896.06,-0.02532436048900163
3892.06,-0.0227048003047206
3888.07,-0.02469839753861527
3884.07,-0.02775073824106559
3880.07,-0.028354493895682554
3876.07,-0.02838745391794846
3872.08,-0.030090310314450502
3868.08,-0.031334063678791525
3864.08,-0.02959790341907524
3860.08,-0.02655132243706
3856.09,-0.025045088878112683
3852.09,-0.025614188445283903
3848.09,-0.027682413588038475
3844.09,-0.031175655392876395
3840.1,-0.03454191837898
3836.1,-0.034372705051988965
3832.1,-0.03119255451995756
3828.1,-0.030170650876259964
3824.11,-0.032333343147392696
3820.11,-0.03232401729478026
3816.11,-0.026863656468953268
3812.11,-0.021670326771067065
3808.11,-0.021724074472817774
3804.12,-0.023438787429224797
3800.12,-0.01993386869261073
3796.12,-0.012692134191319478
3792.12,-0.009155736085839423
3788.13,-0.011181815288362595
3784.13,-0.01491492096534146
3780.13,-0.016779686594345318
3776.13,-0.017232566170429526
3772.14,-0.018053774775670474
3768.14,-0.01941761604373635
3764.14,-0.0214983915108703
3760.14,-0.02587238721530548
3756.15,-0.03349964376092158
3752.15,-0.042780396888724495
3748.15,-0.050291924563853334
3744.15,-0.054111878207938086
3740.16,-0.05447165868079141
3736.16,-0.05127633922500317
3732.16,-0.04509125518590924
3728.16,-0.038458017009176955
3724.16,-0.03384172633201435
3720.17,-0.03206732405513204
3716.17,-0.03234884316670727
3712.17,-0.03179189953131255
3708.17,-0.02690449887641965
3704.18,-0.019122427502344556
3700.18,-0.014944420763601937
3696.18,-0.018323722410287655
3692.18,-0.025313169432295238
3688.19,-0.02753967480484846
3684.19,-0.023954160022906713
3680.19,-0.021737846375971592
3676.19,-0.023719059608668464
3672.2,-0.023139998780683416
3668.2,-0.01591637742790076
3664.2,-0.010519089805221142
3660.2,-0.015506291022531822
3656.21,-0.030306086393142237
3652.21,-0.04365782903933817
3648.21,-0.042030086353066695
3644.21,-0.029802833865323678
3640.21,-0.02121361175260514
3636.22,-0.021326113821320075
3632.22,-0.026676360641184275
3628.22,-0.031184862915779005
3624.22,-0.032146435612736265
3620.23,-0.031465826555827324
3616.23,-0.030458917001553575
3612.23,-0.027625978226065516
3608.23,-0.022319429261037395
3604.24,-0.017685071297989925
3600.24,-0.017372727854688515
3596.24,-0.02151937577640989
3592.24,-0.026344817373295915
3588.25,-0.027012266458071622
3584.25,-0.022701046025333273
3580.25,-0.01755223170944177
3576.25,-0.015846104820557896
3572.26,-0.018354155257171215
3568.26,-0.02218872466056868
3564.26,-0.02351984594843653
3560.26,-0.021939422770789672
3556.26,-0.020031733708333156
3552.27,-0.01893272813358514
3548.27,-0.017327180756911784
3544.27,-0.014457728105278756
3540.27,-0.0121890833287942
3536.28,-0.012307062016290326
3532.28,-0.013523947833131194
3528.28,-0.012710718780817969
3524.28,-0.008430094138884322
3520.29,-0.0029066863552575026
3516.29,-7.906277544501156e-05
3512.29,-0.001965215040285505
3508.29,-0.006654511237790455
3504.3,-0.009351494441120684
3500.3,-0.0068779029645971755
3496.3,-0.0016132414981602713
3492.3,0.0008724728172695151
3488.31,-0.0019759764750689286
3484.31,-0.0073499914109912984
3480.31,-0.01066596760732242
3476.31,-0.010390575964706052
3472.32,-0.008445042451879207
3468.32,-0.007098388538180364
3464.32,-0.007467996179657852
3460.32,-0.00969584755819404
3456.32,-0.01287185791237162
3452.33,-0.015321728126571297
3448.33,-0.015848514893462028
3444.33,-0.01454766522585452
3440.33,-0.011790545758944077
3436.34,-0.00782466878727146
3432.34,-0.0038880572318837816
3428.34,-0.002144253812017414
3424.34,-0.003372305486606447
3420.35,-0.005617096173657916
3416.35,-0.00625224016683117
3412.35,-0.0046819213170396536
3408.35,-0.0022309972740437514
3404.36,-0.00046761530685132495
3400.36,-0.0005952135195028962
3396.36,-0.0032556520534039214
3392.36,-0.007410329385606364
3388.37,-0.010345120637481551
3384.37,-0.01032053579125635
3380.37,-0.008551497424779626
3376.37,-0.007372025060775001
3372.37,-0.007552600049958627
3368.38,-0.008594543745669429
3364.38,-0.01017421888888709
3360.38,-0.01149563839650522
3356.38,-0.010775884020460022
3352.39,-0.007516149879803848
3348.39,-0.004284273358091263
3344.39,-0.003830150123772748
3340.39,-0.005488252729227119
3336.4,-0.006485768201159708
3332.4,-0.005993392508127615
3328.4,-0.005771138208293048
3324.4,-0.00702079225328134
3320.41,-0.0090438555137641
3316.41,-0.010948645737899181
3312.41,-0.012368847793020537
3308.41,-0.012357996648418444
3304.42,-0.010193763252270047
3300.42,-0.007706374053918686
3296.42,-0.008004422654752921
3292.42,-0.011299507960662706
3288.42,-0.014317356187560124
3284.43,-0.014797815072902848
3280.43,-0.014376440685384278
3276.43,-0.015281872388985741
3272.43,-0.01686174231221385
3268.44,-0.017399664614883896
3264.44,-0.017255844217688946
3260.44,-0.017709468547384897
3256.44,-0.018072365080755232
3252.45,-0.016672982067391602
3248.45,-0.014087995952427164
3244.45,-0.012736374866331484
3240.45,-0.01337960150209917
3236.46,-0.014189738020354614
3232.46,-0.013500463671596429
3228.46,-0.011845116815851296
3224.46,-0.010805905440983905
3220.47,-0.01102385096573696
3216.47,-0.011949404838074468
3212.47,-0.012831886249155343
3208.47,-0.013495109408696249
3204.47,-0.014249698651659193
3200.48,-0.015106565724437093
3196.48,-0.015260240886510863
3192.48,-0.01391619622375641
3188.48,-0.011768619366326956
3184.49,-0.010688780790196866
3180.49,-0.011424382437713173
3176.49,-0.01254373547987293
3172.49,-0.012406515386244083
3168.5,-0.011327136610898583
3164.5,-0.010644427235976184
3160.5,-0.010511898739440615
3156.5,-0.010041752434532265
3152.51,-0.00923966461816643
3148.51,-0.00913075353704209
3144.51,-0.010025119307825691
3140.51,-0.011051609206522097
3136.52,-0.01170801786868416
3132.52,-0.01263269315567989
3128.52,-0.014142765354715366
3124.52,-0.015097183621912747
3120.53,-0.01427958817255954
3116.53,-0.012348287668995938
3112.53,-0.0113167180491464
3108.53,-0.012147008663459719
3104.53,-0.013676211979265024
3100.54,-0.014187289231416173
3096.54,-0.013400838068702405
3092.54,-0.01236482422185496
3088.54,-0.011709267590932597
3084.55,-0.010961638503647585
3080.55,-0.009579587658237153
3076.55,-0.007986343922591212
3072.55,-0.007056900145292588
3068.56,-0.006935186011340345
3064.56,-0.0070766977381697856
3060.56,-0.007317144357557908
3056.56,-0.008185511329865319
3052.57,-0.010042432345230633
3048.57,-0.012505731489022814
3044.57,-0.014910299205267964
3040.57,-0.01681684366637523
3036.58,-0.017728730026829634
3032.58,-0.016908314674203527
3028.58,-0.014220374641973323
3024.58,-0.010935316215426177
3020.58,-0.008983603712736044
3016.59,-0.00924102316316211
3012.59,-0.010833414267245475
3008.59,-0.012082727007877242
3004.59,-0.011795221772524955
3000.6,-0.009954412236348471
2996.6,-0.0075168259438661775
2992.6,-0.005447861926653641
2988.6,-0.003940774210190321
2984.61,-0.002745090743855476
2980.61,-0.0020220451837345763
2976.61,-0.0024040329090582804
2972.61,-0.00420147028946697
2968.62,-0.00682334716368415
2964.62,-0.009151592891495863
2960.62,-0.010386172686580316
2956.62,-0.010399007761617677
2952.63,-0.009506405237847421
2948.63,-0.008210644017410947
2944.63,-0.006901885179079342
2940.63,-0.005605312488483189
2936.63,-0.004240190184402616
2932.64,-0.0031476887049633126
2928.64,-0.0028611653736527153
2924.64,-0.0032588726290917955
2920.64,-0.0034636599656443987
2916.65,-0.002950892272005543
2912.65,-0.002290121675875372
2908.65,-0.002244619191237387
2904.65,-0.002851553745942436
2900.66,-0.003643148282832652
2896.66,-0.004158688566161323
2892.66,-0.004197796704232631
2888.66,-0.0038864390540721203
2884.67,-0.003626017446898916
2880.67,-0.003767866453441116
2876.67,-0.00423934363102094
2872.67,-0.004706997584763565
2868.68,-0.005055051743595091
2864.68,-0.005327619734211968
2860.68,-0.005213919401604705
2856.68,-0.004205653104903324
2852.68,-0.002491129905260115
2848.69,-0.0011051284624464704
2844.69,-0.0007494708907003211
2840.69,-0.0011033541103038485
2836.69,-0.0016818453571472401
2832.7,-0.0024565469547582243
2828.7,-0.003295175684848415
2824.7,-0.0036513147334399504
2820.7,-0.0033912324769558126
2816.71,-0.0032080856933018598
2812.71,-0.0035668621543160917
2808.71,-0.003846207053963817
2804.71,-0.0033851485663517703
2800.72,-0.002812082156716699
2796.72,-0.0032372663529985878
2792.72,-0.004539817898081264
2788.72,-0.005536344256289948
2784.73,-0.005766043842512494
2780.73,-0.005934389839827151
2776.73,-0.006381371274459613
2772.73,-0.0063293847378576955
2768.74,-0.005230514784786864
2764.74,-0.003926521298602844
2760.74,-0.003701134563545705
2756.74,-0.004700957115923749
2752.74,-0.005932456140862708
2748.75,-0.006560125607735682
2744.75,-0.006592594737112927
2740.75,-0.006458820657674192
2736.75,-0.006449870227608947
2732.76,-0.006607790551573024
2728.76,-0.006829803952323383
2724.76,-0.006966544425129571
2720.76,-0.006952020747387973
2716.77,-0.00682692852400255
2712.77,-0.006625330226170426
2708.77,-0.006370514613968051
2704.77,-0.006226336254170337
2700.78,-0.006430909366019154
2696.78,-0.006922198340242287
2692.78,-0.007271511139448977
2688.78,-0.007204684523999478
2684.79,-0.007012842433203298
2680.79,-0.007150505037179468
2676.79,-0.007535786235833477
2672.79,-0.007585845035804206
2668.79,-0.00697332966134329
2664.8,-0.006087317949671208
2660.8,-0.005598931911117917
2656.8,-0.005726057939235165
2652.8,-0.0060607954850964
2648.81,-0.006050863288359197
2644.81,-0.005630983486549751
2640.81,-0.00529382078233436
2636.81,-0.005520321243632132
2632.82,-0.0062045185462673465
2628.82,-0.006626887806718067
2624.82,-0.0060168299750576046
2620.82,-0.004252175934386106
2616.83,-0.0020956969308923625
2612.83,-0.0007322132374601564
2608.83,-0.000815919276583559
2604.83,-0.002259949835971808
2600.84,-0.005090517078435244
2596.84,-0.009509194075722554
2592.84,-0.01435390229781935
2588.84,-0.0166151265664085
2584.84,-0.01432409035881239
2580.85,-0.009827651576255897
2576.85,-0.0073874408203017435
2572.85,-0.00794950160550378
2568.85,-0.008592827894821591
2564.86,-0.007144485213138821
2560.86,-0.005559399891012668
2556.86,-0.006460072434194918
2552.86,-0.009122836713795948
2548.87,-0.010743971805691628
2544.87,-0.009684817019734957
2540.87,-0.006397357296146604
2536.87,-0.002018174379662522
2532.88,0.0015904024224154076
2528.88,0.0019322015967487404
2524.88,-0.002241300136161465
2520.88,-0.008901344279304228
2516.89,-0.01419983975223946
2512.89,-0.01656651872283292
2508.89,-0.016968148152734206
2504.89,-0.015826589758597045
2500.89,-0.013140582639435877
2496.9,-0.010675570598199282
2492.9,-0.01081633576791996
2488.9,-0.0134992037800879
2484.9,-0.015957296789439718
2480.91,-0.016063359278451747
2476.91,-0.014020181591519076
2472.91,-0.010721419802515814
2468.91,-0.006706209959639495
2464.92,-0.002749374225596156
2460.92,2.7473519569118712e-05
2456.92,0.0008930708481124372
2452.92,0.0003446237083554165
2448.93,-0.0006467851437730147
2444.93,-0.0019602888374851465
2440.93,-0.003832873837527605
2436.93,-0.006056456063222533
2432.94,-0.007870821770477324
2428.94,-0.008569444351204988
2424.94,-0.008102059955171059
2420.94,-0.007241252155096753
2416.95,-0.006742816592874777
2412.95,-0.006658936920536486
2408.95,-0.006365500222534836
2404.95,-0.005390448781112209
2400.95,-0.004293983889246782
2396.96,-0.004018036819170401
2392.96,-0.0049032888249364425
2388.96,-0.0061772799803774155
2384.96,-0.0063775570511537425
2380.97,-0.004549786309821349
2376.97,-0.0011621411605027354
2372.97,0.0016865237217523615
2368.97,0.0020498575631970406
2364.98,0.0005587778896543865
2360.98,-0.0002888452231381935
2356.98,0.0003406762031289718
2352.98,0.0009535794519416677
2348.99,0.000596670772562328
2344.99,0.00014776929825611757
2340.99,0.001206041489906007
2336.99,0.004076763393766486
2333.0,0.007230550782725399
2329.0,0.009133241032798764
2325.0,0.009153189535668523
2321.0,0.00722652543491178
2317.0,0.004142408149149112
2313.01,0.001933700283109064
2309.01,0.0026720700005471677
2305.01,0.0065534537792245355
2301.01,0.012385309480003156
2297.02,0.018706044732240006
2293.02,0.023830932446337796
2289.02,0.027335456782290372
2285.02,0.03074809221183012
2281.03,0.03687602076762454
2277.03,0.047805992176957884
2273.03,0.06020322513211908
2269.03,0.06721035431464487
2265.04,0.061965044222268895
2261.04,0.0440359122864635
2257.04,0.02190784558855228
2253.04,0.003782716008994793
2249.05,0.0010381272481332741
2245.05,0.014991702217651781
2241.05,0.032120688642277406
2237.05,0.04522630149470541
2233.05,0.05134462974802296
2229.06,0.05025085442674439
2225.06,0.040268880253841635
2221.06,0.024082170766777197
2217.06,0.010237463186028209
2213.07,0.0048615589507957566
2209.07,0.011847680737541059
2205.07,0.022886831431928097
2201.07,0.030702579604666026
2197.08,0.030669784315980785
2193.08,0.026320671733103252
2189.08,0.016208845380018343
2185.08,-0.006307897676443276
2181.09,-0.029286869705352915
2177.09,-0.03681362755353734
2173.09,-0.019362382922024864
2169.09,0.00716332655256962
2165.1,0.020295825815416793
2161.1,0.02899941160506747
2157.1,0.048577337489558475
2153.1,0.06786857560153046
2149.11,0.06281852835298803
2145.11,0.04162961947614259
2141.11,0.02372468356091505
2137.11,0.013081113244292081
2133.11,0.00552799439999037
2129.12,0.0032908994631792466
2125.12,0.006006011240608676
2121.12,0.00870759797036914
2117.12,0.004010073741109522
2113.13,-0.010966431902882129
2109.13,-0.03000137391318775
2105.13,-0.0398746453211151
2101.13,-0.0346027231211521
2097.14,-0.025945057904971112
2093.14,-0.022786654302205406
2089.14,-0.021890357678479466
2085.14,-0.016166814213478115
2081.15,-0.006313999132776283
2077.15,0.007100526603741878
2073.15,0.025445254188726486
2069.15,0.03721462235751721
2065.16,0.03065991559827482
2061.16,0.012509163974668119
2057.16,0.004791444140540797
2053.16,0.009939342141770818
2049.16,0.01943031583711238
2045.17,0.04721049550597029
2041.17,0.08347531729620652
2037.17,0.08521575911479544
2033.17,0.06819599194112203
2029.18,0.030884218244255076
2025.18,-0.014660839063372327
2021.18,-0.019718342487621485
2017.18,-0.006234636737307304
2013.19,-0.007876390700311788
2009.19,0.004917363067068095
2005.19,0.029627622956255602
2001.19,0.044924150666893564
1997.2,0.049444461979111204
1993.2,0.032742370693354575
1989.2,0.000850456298893288
1985.2,-0.03443130188695004
1981.21,-0.05991148852508938
1977.21,-0.03482415495947851
1973.21,-0.011431894078590802
1969.21,-0.000393776161932877
1965.21,0.00465002029805987
1961.22,0.010766037764309823
1957.22,0.010628232587921197
1953.22,-0.007258214553826459
1949.22,-0.03792392494656872
1945.23,-0.05198546210699635
1941.23,-0.04128550021192051
1937.23,-0.03431835868668124
1933.23,-0.04319186988780939
1929.24,-0.04722471717719487
1925.24,-0.030645680859983582
1921.24,-0.010601023964284226
1917.24,-0.0015281284435612833
1913.25,-0.0010365555600674401
1909.25,-0.003616123507796622
1905.25,-0.009524780872116377
1901.25,-0.018467903573254903
1897.26,-0.022765991199819032
1893.26,-0.01774243157699636
1889.26,-0.01030395012514996
1885.26,-0.005871434029147112
1881.26,-0.003768443603102043
1877.27,-0.003976541925030953
1873.27,-0.00869382351828724
1869.27,-0.015554302796631777
1865.27,-0.017000323793494525
1861.28,-0.012206829693323274
1857.28,-0.0098919234186339
1853.28,-0.013770580945709494
1849.28,-0.018109855943886047
1845.29,-0.017311719436314314
1841.29,-0.01574003674630327
1837.29,-0.01808087736203472
1833.29,-0.02102668077229266
1829.3,-0.019538170636800897
1825.3,-0.015719805558438053
1821.3,-0.013978534054291551
1817.3,-0.01400410566344762
1813.31,-0.013999128590356779
1809.31,-0.015054203979695206
1805.31,-0.018562467817172558
1801.31,-0.022697415385065537
1797.32,-0.024028143129253013
1793.32,-0.022242301896304124
1789.32,-0.019699923749080677
1785.32,-0.01812221265583398
1781.32,-0.018652453412218727
1777.33,-0.022005021316425313
1773.33,-0.026209528535937374
1769.33,-0.026855536706700787
1765.33,-0.023834528437427182
1761.34,-0.022681768048718163
1757.34,-0.026521081090030176
1753.34,-0.03207789331240913
1749.34,-0.03438371749631578
1745.35,-0.034874727716471834
1741.35,-0.037220329428949456
1737.35,-0.03897951788220236
1733.35,-0.035774133483033155
1729.36,-0.03149811664578762
1725.36,-0.03216216640738504
1721.36,-0.03687075754361252
1717.36,-0.039332640229830476
1713.37,-0.038346528420829536
1709.37,-0.039733222908777656
1705.37,-0.04522063413254326
1701.37,-0.04836897468507083
1697.37,-0.04467454829030408
1693.38,-0.0399454557194934
1689.38,-0.03868060985454322
1685.38,-0.038409366327985736
1681.38,-0.03605583299794003
1677.39,-0.032849355721646406
1673.39,-0.03015054453595472
1669.39,-0.026876520531273023
1665.39,-0.023795251841416905
1661.4,-0.024612343784316943
1657.4,-0.030999922987555363
1653.4,-0.037882936612332496
1649.4,-0.03749394173247404
1645.41,-0.031837314866041855
1641.41,-0.027347191795217805
1637.41,-0.02544273055467565
1633.41,-0.024563351168730537
1629.42,-0.02427581639615742
1625.42,-0.024910238499294038
1621.42,-0.02519674584950688
1617.42,-0.023245775749576404
1613.42,-0.019381499725441863
1609.43,-0.015393729429047615
1605.43,-0.012323348286435894
1601.43,-0.010442451174197665
1597.43,-0.009599711484950414
1593.44,-0.009195352137736541
1589.44,-0.009125763738156094
1585.44,-0.010631137912317387
1581.44,-0.014707499061602382
1577.45,-0.0198297222522919
1573.45,-0.02347731865548267
1569.45,-0.026609897441356174
1565.45,-0.032142110166080276
1561.46,-0.038388439364935106
1557.46,-0.038837800182445835
1553.46,-0.03476510555119519
1549.46,-0.03478105394177588
1545.47,-0.041096986634625556
1541.47,-0.04579326540165602
1537.47,-0.04188486341486132
1533.47,-0.037043901358866746
1529.47,-0.03885435301771417
1525.48,-0.04492062422861223
1521.48,-0.04815902794503641
1517.48,-0.047965045513427076
1513.48,-0.04832908103889023
1509.49,-0.04703068437050934
1505.49,-0.039646987788361565
1501.49,-0.029988440250981845
1497.49,-0.023809106772315243
1493.5,-0.020216418550523634
1489.5,-0.01556006277096015
1485.5,-0.010794684897461042
1481.5,-0.009625401876966665
1477.51,-0.011878940748506685
1473.51,-0.01302097676930325
1469.51,-0.011273491387289426
1465.51,-0.01104465066435889
1461.52,-0.014548781827811198
1457.52,-0.01642636744250848
1453.52,-0.011481176544143594
1449.52,-0.004513437250671375
1445.53,-0.0019866439394338187
1441.53,-0.0042735866654359175
1437.53,-0.0070858579776100425
1433.53,-0.007623936052991526
1429.53,-0.007712398351797205
1425.54,-0.009052128108972914
1421.54,-0.009911800743442604
1417.54,-0.008122998523549516
1413.54,-0.005138838753087099
1409.55,-0.004147979399163119
1405.55,-0.006318287814234033
1401.55,-0.00956585944972473
1397.55,-0.010154285085385486
1393.56,-0.006518873709829648
1389.56,-0.0013015147712138186
1385.56,0.0018486837422731286
1381.56,0.002177756470623536
1377.57,0.0014866756909222498
1373.57,0.0011338208632647798
1369.57,0.0006133340863661504
1365.57,-0.00044121752297346037
1361.58,-0.0006718723862006379
1357.58,0.0008466437291808279
1353.58,0.002313725443233071
1349.58,0.001246020019720382
1345.58,-0.002129895331001306
1341.59,-0.0046976206433491895
1337.59,-0.004158538772966191
1333.59,-0.001849081894368075
1329.59,-0.0005023509748669323
1325.6,-0.0009968083755936656
1321.6,-0.002133390991426773
1317.6,-0.0024637255653940406
1313.6,-0.0016074423018197226
1309.61,-0.00012864339593937277
1305.61,0.0012064422152766423
1301.61,0.0019639817417651285
1297.61,0.002184719079295086
1293.62,0.002198752993133664
1289.62,0.002300148579840903
1285.62,0.00262972702335193
1281.62,0.0032109435925624305
1277.63,0.003775534917159193
1273.63,0.003684211938116501
1269.63,0.0024792061674881113
1265.63,0.0006124766957797401
1261.63,-0.0008062105506257758
1257.64,-0.0012451523063457051
1253.64,-0.001035572986702163
1249.64,-0.0002203005188881127
1245.64,0.0019989254181662364
1241.65,0.006196017160723141
1237.65,0.011483429937059919
1233.65,0.01588508341076178
1229.65,0.018126500994724903
1225.66,0.018628770089043734
1221.66,0.01866632054178874
1217.66,0.019292800148003164
1213.66,0.02006547352620114
1209.67,0.018982251336294442
1205.67,0.017215463377585116
1201.67,0.015524969405339956
1197.67,0.013565249722609724
1193.68,0.011127753465432363
1189.68,0.00870424198707076
1185.68,0.007132662442371325
1181.68,0.006867643035405789
1177.68,0.007700198290719842
1173.69,0.009104184624000193
1169.69,0.010697195279024657
1165.69,0.012366249907079012
1161.69,0.014090997502829598
1157.7,0.015663863194068976
1153.7,0.016577839936281508
1149.7,0.01625157501780336
1145.7,0.014420023820982099
1141.71,0.011319377696690891
1137.71,0.007636120687477883
1133.71,0.004430080769994245
1129.71,0.0028238268673443714
1125.72,0.003333565147634318
1121.72,0.005410366232232684
1117.72,0.007817815488358117
1113.72,0.009653950962335432
1109.73,0.010970794295651991
1105.73,0.012437317402987595
1101.73,0.014660900257843914
1097.73,0.017689129725965202
1093.74,0.0206586143903371
1089.74,0.02197939562210333
1085.74,0.020733618908265833
1081.74,0.018158299955211562
1077.74,0.016739669768607766
1073.75,0.017539119980839037
1069.75,0.019102844798206828
1065.75,0.01941325145289972
1061.75,0.018285881534699185
1057.76,0.016982790863759596
1053.76,0.016224329365939347
1049.76,0.015631854689478978
1045.76,0.014779542634788385
1041.77,0.013804954969999915
1037.77,0.012949972084380253
1033.77,0.012239338994560964
1029.77,0.011700232484832516
1025.78,0.011311200406607963
1021.78,0.010753182171589364
1017.78,0.00988430738155514
1013.78,0.009347910493124743
1009.79,0.009853279162782337
1005.79,0.010872698304352989
1001.79,0.010985429941682518
997.79,0.009703349904790312
993.79,0.008107182043224213
989.8,0.007369952786864567
985.8,0.007354621404019896
981.8,0.007148353583581419
977.8,0.006348481268955392
973.81,0.005219697549261982
969.81,0.003982719791904345
965.81,0.0024206985267765865
961.81,-5.641270904279544e-05
957.82,-0.004095827483621958
953.82,-0.009468392628211551
949.82,-0.014124902742504056
945.82,-0.015130724561068981
941.83,-0.011548904365459491
937.83,-0.0057249763701760215
933.83,-0.0008905508571242435
929.83,0.0016492505120909232
925.84,0.002478851691791878
921.84,0.002296969054525852
917.84,0.0014069391915845324
913.84,0.00045591317573304493
909.84,0.00028424167470560147
905.85,0.0010155710056486272
901.85,0.002221947951653298
897.85,0.0036987332528706854
893.85,0.005073586609760114
889.86,0.005320399870613186
885.86,0.003792135599817741
881.86,0.0015109370286955776
877.86,0.00027657522455084085
873.87,0.0004996466392562689
869.87,0.0010892478370583651
865.87,0.0012660088008273392
861.87,0.0013124361911733655
857.88,0.0017323287938111158
853.88,0.002943620009300131
849.88,0.005199707577826441
845.88,0.007636928890629408
841.89,0.008294732361416389
837.89,0.006549491509209419
833.89,0.0043178302203791125
829.89,0.0032235151685850935
825.89,0.0021389991939154557
821.9,-0.0005248385002874154
817.9,-0.002898926752948297
813.9,-0.0013324288484764107
809.9,0.003300542982518931
805.91,0.00608463114309743
801.91,0.004319471283787624
797.91,0.00042237866221672693
793.91,-0.0010106541716888573
789.92,0.002145744724045273
785.92,0.007703175671595008
781.92,0.009672793072591168
777.92,0.00614096641443862
773.93,-0.013345264508812682
769.93,-0.040283624913054594
765.93,-0.03233843874254405
761.93,-0.04526837238872905
757.94,-0.09132576724968589
753.94,0.008867524222191392
749.94,0.014131384899173538
745.94,-0.012830864299846145
741.95,-0.05368772200738525
737.95,-0.06907789275798704
733.95,-0.1618435684740056
729.95,-0.2545905710048835
725.95,-0.29069979601994256
721.96,-0.1142522621073987
717.96,-0.04152919275083611
713.96,-0.03787241852791262
709.96,-0.03442098946584898
705.97,-0.03715255014071722
701.97,-0.16396703020832026
697.97,-0.2200257171778532
693.97,-0.371298930100063
689.98,-0.2748314831125139
685.98,-0.5769689006025087
681.98,-0.2929878021377496
677.98,-0.13653743532008125
673.99,0.09891951312512158
669.99,0.18279108804362465
665.99,0.1464167705617996
661.99,0.2644041478543454
658.0,0.24072505470080258
654.0,0.2169587193853187
650.0,-0.048687746412807785
