wavenumber,transmittance
4000.0,-0.010071316191667169
3996.0,-0.012002589156451245
3992.0,-0.013869479428415937
3988.01,-0.016234726000351234
3984.01,-0.017501978877991285
3980.01,-0.016322693298737572
3976.01,-0.014007540405042197
3972.02,-0.012161916990546471
3968.02,-0.010204758038759434
3964.02,-0.007475948877620876
3960.02,-0.005699962281647299
3956.03,-0.006749960754103281
3952.03,-0.009432180914174047
3948.03,-0.010960402581161557
3944.03,-0.011067519554175197
3940.04,-0.011353695429858776
3936.04,-0.012018644394427205
3932.04,-0.012387730188183057
3928.04,-0.01310044476772801
3924.05,-0.014644517937577713
3920.05,-0.015178197319139336
3916.05,-0.01372458418533776
3912.05,-0.013707316106941899
3908.05,-0.018815252843824258
3904.06,-0.02673306168698766
3900.06,-0.03015990550425839
3896.06,-0.02776698768421241
3892.06,-0.02605833955815373
3888.07,-0.028486919174392163
3884.07,-0.03164033692632427
3880.07,-0.03209970678513499
3876.07,-0.03155933196571238
3872.08,-0.032010875290672126
3868.08,-0.03169389813194451
3864.08,-0.02896320558563765
3860.08,-0.02569438697148058
3856.09,-0.024094666453136546
3852.09,-0.024186986287145183
3848.09,-0.025673657958624644
3844.09,-0.028874181642628376
3840.1,-0.03215657811708284
3836.1,-0.032093457286868
3832.1,-0.02964122043656138
3828.1,-0.030114441201937656
3824.11,-0.03378100695416837
3820.11,-0.033948336739287724
3816.11,-0.026866577915630123
3812.11,-0.01964200867514201
3808.11,-0.018640872543772332
3804.12,-0.02044998821193321
3800.12,-0.01754886626589033
3796.12,-0.010709752965783173
3792.12,-0.007226855106689883
3788.13,-0.00903874124506544
3784.13,-0.01225824663502984
3780.13,-0.01342932862410017
3776.13,-0.013409805297304057
3772.14,-0.014296685981184385
3768.14,-0.016157546108700318
3764.14,-0.018726969655057994
3760.14,-0.023347437578832675
3756.15,-0.031189879607924617
3752.15,-0.04091034973364925
3748.15,-0.04887233266896232
3744.15,-0.05262953748937519
3740.16,-0.052295829873187996
3736.16,-0.048144720353714164
3732.16,-0.041278016092777314
3728.16,-0.03464806916789789
3724.16,-0.030744963270180503
3720.17,-0.030041499961495077
3716.17,-0.03135803568058783
3712.17,-0.03166274997766627
3708.17,-0.027585576336721207
3704.18,-0.020594279907281944
3700.18,-0.016965664812189925
3696.18,-0.02048476473951358
3692.18,-0.027240006302058434
3688.19,-0.02894538237516228
3684.19,-0.024556052433710576
3680.19,-0.021282610374418393
3676.19,-0.02226153232351394
3672.2,-0.02118541434002081
3668.2,-0.014051842022203885
3664.2,-0.009164881099277357
3660.2,-0.015483926669438023
3656.21,-0.033334999377470455
3652.21,-0.05144194589903969
3648.21,-0.05377170487132607
3644.21,-0.04228301548643516
3640.21,-0.03180203404392573
3636.22,-0.02888604556876938
3632.22,-0.030936688433476266
3628.22,-0.03253926070994021
3624.22,-0.03160193658721185
3620.23,-0.030087740148011757
3616.23,-0.028836858671089937
3612.23,-0.025866563403029907
3608.23,-0.02040827419323295
3604.24,-0.015793919262855484
3600.24,-0.015884172650611074
3596.24,-0.020825958331583506
3592.24,-0.026581817707492197
3588.25,-0.027959473101143516
3584.25,-0.024036927894819128
3580.25,-0.019135852321841732
3576.25,-0.017533265427795285
3572.26,-0.019726168483609002
3568.26,-0.022768495293972506
3564.26,-0.023453313085754816
3560.26,-0.022152038069118314
3556.26,-0.02149905012580164
3552.27,-0.02208191249526379
3548.27,-0.02186634681743868
3544.27,-0.019514554994591992
3540.27,-0.01690968213444684
3536.28,-0.016560475462224163
3532.28,-0.017967920300292574
3528.28,-0.01803387588619533
3524.28,-0.014532781336974927
3520.29,-0.009079402813020188
3516.29,-0.005920661087833153
3512.29,-0.007619406025628164
3508.29,-0.0121896620067136
3504.3,-0.014441018220063526
3500.3,-0.011230868131019964
3496.3,-0.00536569387224987
3492.3,-0.0025442809980519253
3488.31,-0.005082920261390389
3484.31,-0.010160149998669028
3480.31,-0.013524792075055265
3476.31,-0.013748792864028473
3472.32,-0.012489733935877864
3468.32,-0.011813654216988484
3464.32,-0.012704308511845265
3460.32,-0.01496064550849428
3456.32,-0.017360580210645675
3452.33,-0.01855289652987088
3448.33,-0.018155831868658573
3444.33,-0.01665218256579268
3440.33,-0.014000040080550299
3436.34,-0.010008851422051435
3432.34,-0.006024200273452331
3428.34,-0.004450060558967191
3424.34,-0.00596470807106532
3420.35,-0.008453597585193005
3416.35,-0.009426639169708855
3412.35,-0.008430292762602258
3408.35,-0.006557260111047295
3404.36,-0.005015201239280049
3400.36,-0.004936007936079307
3396.36,-0.007161652073131325
3392.36,-0.010847598663223976
3388.37,-0.013382020775420276
3384.37,-0.013073842500332751
3380.37,-0.011077499199744994
3376.37,-0.009506781969850584
3372.37,-0.009016269588776011
3368.38,-0.009275579289901054
3364.38,-0.010179654244177164
3360.38,-0.010921419786878293
3356.38,-0.009572999746876261
3352.39,-0.005581332037565117
3348.39,-0.0015050564072110577
3344.39,-6.0928392012587346e-05
3340.39,-0.0007395191218050046
3336.4,-0.0011186052352438434
3332.4,-0.0004561756728593755
3328.4,-4.813689495246701e-05
3324.4,-0.0006381583868715762
3320.41,-0.001804299330205525
3316.41,-0.0033836623943409565
3312.41,-0.005255699904583631
3308.41,-0.005978421259349434
3304.42,-0.004246886684828017
3300.42,-0.0017970830155445844
3296.42,-0.0019905429031517076
3292.42,-0.005262675787954923
3288.42,-0.008447633747722331
3284.43,-0.009317454043000838
3280.43,-0.009424145973745296
3276.43,-0.010864991100729596
3272.43,-0.01295481232246613
3268.44,-0.014014750928089507
3264.44,-0.014348992937183915
3260.44,-0.015143446544816353
3256.44,-0.015839899089855683
3252.45,-0.015019529289294172
3248.45,-0.013154496697002995
3244.45,-0.012138856729616811
3240.45,-0.012434774525612178
3236.46,-0.012641143545587059
3232.46,-0.011771991129314955
3228.46,-0.010487947304796429
3224.46,-0.009898069845111622
3220.47,-0.010222187472707311
3216.47,-0.01092044943629012
3212.47,-0.011476662119991585
3208.47,-0.011856568381261146
3204.47,-0.012435144920523637
3200.48,-0.01331012346930618
3196.48,-0.01373530650021763
3192.48,-0.012854574291647736
3188.48,-0.011211382671700621
3184.49,-0.010526555733918402
3180.49,-0.011472507416408378
3176.49,-0.012655502157921448
3172.49,-0.012554902543184504
3168.5,-0.011513862493128645
3164.5,-0.010735007038219278
3160.5,-0.010252340634605572
3156.5,-0.009301838875388666
3152.51,-0.008155039300679692
3148.51,-0.007992505119243288
3144.51,-0.009096478307378102
3140.51,-0.010489746728085737
3136.52,-0.011549865012571806
3132.52,-0.012757667164063942
3128.52,-0.014315060967526435
3124.52,-0.015138975870487022
3120.53,-0.014160198363543902
3116.53,-0.012080018745663685
3112.53,-0.01083238549405997
3108.53,-0.011420962662527708
3104.53,-0.01286977947538536
3100.54,-0.013447069501337467
3096.54,-0.012574401901945578
3092.54,-0.011114667210116266
3088.54,-0.009914922423859848
3084.55,-0.008849475047205938
3080.55,-0.007413989113025148
3076.55,-0.005797579581592098
3072.55,-0.004751585025060814
3068.56,-0.0045083972261569585
3064.56,-0.004564921755949289
3060.56,-0.004591533085456914
3056.56,-0.004936556958852006
3052.57,-0.0060274226172027726
3048.57,-0.007780416322423062
3044.57,-0.009801604455669632
3040.57,-0.011693099241954708
3036.58,-0.012794953877334203
3032.58,-0.012109257340924627
3028.58,-0.00920007138581462
3024.58,-0.004984796705461453
3020.58,-0.0011513020260264795
3016.59,0.0011235171341917594
3012.59,0.0019725901508393234
3008.59,0.002656614734401007
3004.59,0.0044964189181945155
3000.6,0.007754105211162696
2996.6,0.011579936309567863
2992.6,0.015199667039738685
2988.6,0.01878560426834816
2984.61,0.02277908604066868
2980.61,0.026710149952851904
2976.61,0.029388533303291685
2972.61,0.030107818156781666
2968.62,0.029199521683961213
2964.62,0.027532014392167202
2960.62,0.025835638991009803
2956.62,0.024573895381877847
2952.63,0.02393069379958234
2948.63,0.023667218083595284
2944.63,0.023350558827612628
2940.63,0.022870415825844585
2936.63,0.022388743742608595
2932.64,0.021720903598163324
2928.64,0.020358778827901842
2924.64,0.018348659750832254
2920.64,0.01659010928387394
2916.65,0.015705958778077105
2912.65,0.015102860943230247
2908.65,0.013905722450110299
2904.65,0.01207449296636855
2900.66,0.01019704776806618
2896.66,0.008803936322382074
2892.66,0.008083409550402508
2888.66,0.007917427962068027
2884.67,0.00792420339555468
2880.67,0.007681412517653481
2876.67,0.0070992918928011114
2872.67,0.0063665331606432805
2868.68,0.0055059921962935104
2864.68,0.004412925368459206
2860.68,0.0034424820307776237
2856.68,0.0033386748476951014
2852.68,0.004250819291275982
2848.69,0.005322766905581474
2844.69,0.005765412137677332
2840.69,0.0056891392825828575
2836.69,0.005358769103444887
2832.7,0.004645735405427053
2828.7,0.003728934861335579
2824.7,0.0034001616265242913
2820.7,0.003944327717519137
2816.71,0.0045012979477927866
2812.71,0.00433126396299238
2808.71,0.004041088907574727
2804.71,0.004500778547995719
2800.72,0.005153821365361489
2796.72,0.004734094425922481
2792.72,0.0032938676294384205
2788.72,0.0022214273814732573
2784.73,0.0022079683594156893
2780.73,0.0024912650726414444
2776.73,0.0024423556734038815
2772.73,0.002638847182583389
2768.74,0.003697009113259266
2764.74,0.004962292977788418
2760.74,0.005204063246355502
2756.74,0.004139705419474523
2752.74,0.002657571874952835
2748.75,0.001728883572428978
2744.75,0.001629877125869374
2740.75,0.0020628820703730497
2736.75,0.0025791623248381627
2732.76,0.002908244847243025
2728.76,0.00309229352861704
2724.76,0.00332639317826278
2720.76,0.0036540847972046184
2716.77,0.003961814273019251
2712.77,0.004235781034858471
2708.77,0.004575734319588239
2704.77,0.004898082070214194
2700.78,0.004939962389231866
2696.78,0.004723717139578377
2692.78,0.004705992320931206
2688.78,0.005261018605471273
2684.79,0.0062358006664751334
2680.79,0.007249215318259505
2676.79,0.008251907866011418
2672.79,0.009509134671847193
2668.79,0.011087345962271842
2664.8,0.012597382700276126
2660.8,0.013549690235200628
2656.8,0.013826924338984761
2652.8,0.01374142646159366
2648.81,0.013712753058355086
2644.81,0.013870678518261485
2640.81,0.013997375668682048
2636.81,0.013820685443278408
2632.82,0.013343798682659834
2628.82,0.012991234351263665
2624.82,0.013413265442965854
2620.82,0.014893370523968615
2616.83,0.016855596320679483
2612.83,0.01803928623393896
2608.83,0.017624198115279217
2604.83,0.01586567073100633
2600.84,0.013098517976445834
2596.84,0.009116510309234925
2592.84,0.004555642214843468
2588.84,0.0020138267055168167
2584.84,0.003570297804039219
2580.85,0.007150638666183359
2576.85,0.008433954645144744
2572.85,0.006247176127968341
2568.85,0.0037406388155054055
2564.86,0.003788275375854371
2560.86,0.004759913785721518
2556.86,0.0036200112963425506
2552.86,0.00046270159291789646
2548.87,-0.0022517294576152687
2544.87,-0.0026801555212493935
2540.87,-0.000635855449815933
2536.87,0.003524490135695897
2532.88,0.008066936856030634
2528.88,0.009671652706680144
2524.88,0.0062789999313466495
2520.88,-0.00020336629299491996
2516.89,-0.005621659273140133
2512.89,-0.008195654164545657
2508.89,-0.008754234948979672
2504.89,-0.007398280242229674
2500.89,-0.003973479321479904
2496.9,-0.0004408074692555091
2492.9,0.0006339187264526123
2488.9,-0.0005295633038491024
2484.9,-0.0011972226442129637
2480.91,0.00013801628104004836
2476.91,0.0028236771721179485
2472.91,0.006108493544380835
2468.91,0.009824007335144672
2464.92,0.0132677298600042
2460.92,0.015027795565808296
2456.92,0.014494425273668232
2452.92,0.012789859561071183
2448.93,0.011098503342696044
2444.93,0.009107820926141581
2440.93,0.006361448555535675
2436.93,0.0032086684659294335
2432.94,0.0005114981230703152
2428.94,-0.0010659372124061667
2424.94,-0.0016387930008573397
2420.94,-0.0018889691556848998
2416.95,-0.0022992891801666433
2412.95,-0.0029775517903827646
2408.95,-0.003358862908313621
2404.95,-0.002828258968444828
2400.95,-0.0019051637686693552
2396.96,-0.0015838167428804013
2392.96,-0.0022015764793206615
2388.96,-0.003092194816435469
2384.96,-0.0030442695398372153
2380.97,-0.001335288427232191
2376.97,0.0014203549872871457
2372.97,0.0030553769302242156
2368.97,0.0018178029916814204
2364.98,-0.0008524614614778239
2360.98,-0.0014226531198721082
2356.98,0.0007124636125628511
2352.98,0.0025869413794299256
2348.99,0.0022855225288072544
2344.99,0.0007836184003609868
2340.99,0.0005478579732077424
2336.99,0.0028707786330024647
2333.0,0.006306100820471054
2329.0,0.008527202037084246
2325.0,0.008153000414677102
2321.0,0.004960276013842963
2317.0,0.0003054291982795571
2313.01,-0.002945760102733056
2309.01,-0.002636489005417489
2305.01,0.0006026927608393049
2301.01,0.004871154356344721
2297.02,0.008569757360870608
2293.02,0.00984501372526642
2289.02,0.007728570035015544
2285.02,0.003768446161140436
2281.03,0.0024995143548850133
2277.03,0.007652456380500211
2273.03,0.015026721462404666
2269.03,0.017250707121568766
2265.04,0.009783432058301162
2261.04,-0.00627453600051418
2257.04,-0.023360983888889728
2253.04,-0.035253011810221425
2249.05,-0.031167836524499552
2245.05,-0.01044595599635996
2241.05,0.012383446436978857
2237.05,0.03025295927475947
2233.05,0.04206691154887198
2229.06,0.04596872583761157
2225.06,0.039762540406757876
2221.06,0.027677577519160137
2217.06,0.017392193358325442
2213.07,0.009740122369437741
2209.07,0.009156013599491898
2205.07,0.012073188021803443
2201.07,0.01471979352180664
2197.08,0.014052377994008774
2193.08,0.011145926565557036
2189.08,-2.484949290126187e-06
2185.08,-0.024108154705394423
2181.09,-0.05010320704408785
2177.09,-0.057579646399283375
2173.09,-0.03253365359730609
2169.09,0.007463781839769531
2165.1,0.031963804473751994
2161.1,0.04641087450563
2157.1,0.0689551229879703
2153.1,0.08785895926300279
2149.11,0.07677543559767419
2145.11,0.05022239344237773
2141.11,0.031074548120000788
2137.11,0.019512658238080325
2133.11,0.009240669387890813
2129.12,0.0033673143685864137
2125.12,0.0032574937774605024
2121.12,0.00790052505375615
2117.12,0.00841233529799928
2113.13,-0.004777577821320514
2109.13,-0.028352175376254805
2105.13,-0.045183948269313615
2101.13,-0.042318833168623456
2097.14,-0.031149481355871943
2093.14,-0.025852676471105573
2089.14,-0.02499376969832822
2085.14,-0.019817945366209844
2081.15,-0.008932359617303421
2077.15,0.00753774916296467
2073.15,0.03123054946193187
2069.15,0.047922090269942465
2065.16,0.04054855050468477
2061.16,0.018408720415577236
2057.16,0.011081979307065917
2053.16,0.017924398205044927
2049.16,0.024070963073568437
2045.17,0.04528867246695253
2041.17,0.07885772625430335
2037.17,0.07570883211266505
2033.17,0.05587079375536438
2029.18,0.021455013013587404
2025.18,-0.021629579527575576
2021.18,-0.028995302443665466
2017.18,-0.025007233681894895
2013.19,-0.03685228064876255
2009.19,-0.021587923408006564
2005.19,0.00504190788625836
2001.19,0.024935978713697453
1997.2,0.03236836678987864
1993.2,0.02025798979669198
1989.2,-0.0024053464228871255
1985.2,-0.03548960561712766
1981.21,-0.06946171155106008
1977.21,-0.05016687787142697
1973.21,-0.026288918253750803
1969.21,-0.013892916803313775
1965.21,-0.008980410502481963
1961.22,0.0006801791409082256
1957.22,0.006559817887771475
1953.22,-0.007868741118493686
1949.22,-0.03985769408875359
1945.23,-0.05429631873190653
1941.23,-0.03969301931501064
1937.23,-0.030494316957126604
1933.23,-0.04141084170353456
1929.24,-0.04812038084580891
1925.24,-0.03231158244584281
1921.24,-0.013516997120454854
1917.24,-0.0067926400622584085
1913.25,-0.005930311639984627
1909.25,-0.004375031152273473
1905.25,-0.007187231699939162
1901.25,-0.01624782851225314
1897.26,-0.021583832057089275
1893.26,-0.016384799727031232
1889.26,-0.008993047651866983
1885.26,-0.0057674393474853895
1881.26,-0.004379411308299479
1877.27,-0.003968620840570271
1873.27,-0.008537464471242954
1869.27,-0.016412883605704053
1865.27,-0.018045604767835267
1861.28,-0.011857204465529727
1857.28,-0.008879972026513708
1853.28,-0.013990631971241733
1849.28,-0.01964811837922125
1845.29,-0.018335275171599774
1841.29,-0.015687547376614205
1837.29,-0.01804620074247763
1833.29,-0.021522662812565204
1829.3,-0.019874839360937403
1825.3,-0.015526484139168014
1821.3,-0.013551009270067197
1817.3,-0.01326012193223527
1813.31,-0.012617367921760908
1809.31,-0.013352642718502825
1805.31,-0.017187492145615987
1801.31,-0.021685005874983464
1797.32,-0.0228370985486181
1793.32,-0.020717647701029036
1789.32,-0.018122943706244517
1785.32,-0.01649103456648669
1781.32,-0.016818819584536297
1777.33,-0.020289581375754293
1773.33,-0.02499449374793909
1769.33,-0.025668828916677572
1765.33,-0.02192784009783641
1761.34,-0.02027681089451345
1757.34,-0.02438786815333484
1753.34,-0.030287551021423255
1749.34,-0.032281212800344856
1745.35,-0.03242760976414238
1741.35,-0.03511800597879347
1737.35,-0.03730859096070016
1733.35,-0.03375042851154586
1729.36,-0.028937101624633366
1725.36,-0.029654037297435834
1721.36,-0.03455827812570296
1717.36,-0.03657191258209465
1713.37,-0.03495421296567018
1709.37,-0.036279647684400194
1705.37,-0.04158186692502962
1701.37,-0.04296818012917279
1697.37,-0.03605170319146817
1693.38,-0.027753358257477146
1689.38,-0.022160897746992564
1685.38,-0.01612322464270774
1681.38,-0.007529205334923801
1677.39,0.0013374571784690176
1673.39,0.00957801665795286
1669.39,0.018307487941495018
1665.39,0.025512532254944875
1661.4,0.0270300082038753
1657.4,0.021724340335296022
1653.4,0.014429100490265453
1649.4,0.012030156404224439
1645.41,0.012933632193716398
1641.41,0.011535410474669695
1637.41,0.006865874312771983
1633.41,0.001489621551157401
1629.42,-0.0030962552475563565
1625.42,-0.007250458730855627
1621.42,-0.010299538694635763
1617.42,-0.010606814687284492
1613.42,-0.008349351193985582
1609.43,-0.005221514533403075
1605.43,-0.0024529761028884156
1601.43,-0.0005761584072503517
1597.43,0.0007253993765051828
1593.44,0.0026129778237928385
1589.44,0.005275876902182685
1585.44,0.006986833865669909
1581.44,0.00697916153240314
1577.45,0.007829728774601592
1573.45,0.011724327153013317
1569.45,0.015557745019134886
1565.45,0.015268652362679165
1561.46,0.012868808220454941
1557.46,0.014701551935664137
1553.46,0.018856738340335424
1549.46,0.016901065496743
1545.47,0.006806172002984973
1541.47,-0.002953133785316933
1537.47,-0.003338899523621222
1533.47,-0.001235129845990196
1529.47,-0.005513973223644053
1525.48,-0.014536332282233874
1521.48,-0.020573529111786948
1517.48,-0.022540030017976165
1513.48,-0.02521521307399613
1509.49,-0.02677922691351027
1505.49,-0.021896540329918904
1501.49,-0.013795423090067843
1497.49,-0.008677138534528145
1493.5,-0.005546181831788857
1489.5,8.351464676301795e-05
1485.5,0.007299485144624494
1481.5,0.011650169739820922
1477.51,0.012830527685335193
1473.51,0.01462616720335981
1469.51,0.017614288350591582
1465.51,0.01730623649740346
1461.52,0.012592231021797462
1457.52,0.009923075009958947
1453.52,0.014547068853756
1449.52,0.020828520282979657
1445.53,0.02189509450239091
1441.53,0.017576013876750923
1437.53,0.012484215346791804
1433.53,0.009475954584569797
1429.53,0.006705332509660419
1425.54,0.002840733786763791
1421.54,0.00014400881715656566
1417.54,0.0007842848488261028
1413.54,0.003142051313627936
1409.55,0.004476131904085516
1405.55,0.004044383772789276
1401.55,0.0032665196862577614
1397.55,0.004530594936813001
1393.56,0.00892615135281654
1389.56,0.014324918470941451
1385.56,0.017014584886694904
1381.56,0.015410465380023018
1377.57,0.011467971185540542
1373.57,0.00854392588609302
1369.57,0.008023638379741339
1365.57,0.00901307336047259
1361.58,0.0104488510309779
1357.58,0.011598635265442404
1353.58,0.011279471462129927
1349.58,0.00856668786934493
1345.58,0.004492827876907614
1341.59,0.0019915360006479664
1337.59,0.0028577070114279395
1333.59,0.00553310026173124
1329.59,0.007305388350233422
1325.6,0.007297193197224067
1321.6,0.006689997108419183
1317.6,0.006991206231822516
1313.6,0.008696733994568148
1309.61,0.011412558673745181
1305.61,0.014632764608325827
1301.61,0.018076952922454842
1297.61,0.02147611028497133
1293.62,0.02446987480410448
1289.62,0.026938005445949417
1285.62,0.029195923622123764
1281.62,0.0316107527880364
1277.63,0.034109364086119844
1273.63,0.03624067551512789
1269.63,0.0376516212112175
1265.63,0.03836666876921031
1261.63,0.038743118356362675
1257.64,0.03928722038457415
1253.64,0.040494715034048966
1249.64,0.042663212318151636
1245.64,0.04554031156037047
1241.65,0.04816307674055614
1237.65,0.04935671543148526
1233.65,0.04872602587233933
1229.65,0.04706523140485272
1225.66,0.045011796866620435
1221.66,0.04032507586396661
1217.66,0.02968139064260822
1213.66,0.027768306099491213
1209.67,0.03418705844243092
1205.67,0.03587758188458412
1201.67,0.03454133882648133
1197.67,0.03145913220864281
1193.68,0.027102739850589433
1189.68,0.022878388900093763
1185.68,0.020438414767575568
1181.68,0.020219406672317794
1177.68,0.021425575199377482
1173.69,0.023211907351112566
1169.69,0.025124116852283863
1165.69,0.026487787889727325
1161.69,0.026435633273154326
1157.7,0.02492486569185476
1153.7,0.022972227210030616
1149.7,0.021443413720079206
1145.7,0.020044926908706094
1141.71,0.017900674070517958
1137.71,0.014827490402426102
1133.71,0.011678195040865733
1129.71,0.009588075398710233
1125.72,0.009147587255937749
1121.72,0.010146122370602799
1117.72,0.011766351272501325
1113.72,0.01315811487467599
1109.73,0.014169099109740992
1105.73,0.015479275287706273
1101.73,0.017811758711674903
1097.73,0.02096180865417299
1093.74,0.023678357902359774
1089.74,0.02461598738336173
1085.74,0.023694965037576714
1081.74,0.02254721505865642
1077.74,0.02311970800855716
1073.75,0.025657604380528835
1069.75,0.02827984299905412
1065.75,0.028913146265923888
1061.75,0.027432759092873085
1057.76,0.02536948812686566
1053.76,0.02411787196401164
1049.76,0.02406223644467443
1045.76,0.024934071169283818
1041.77,0.02613300723094844
1037.77,0.02676071131986842
1033.77,0.026231054568847015
1029.77,0.024979807854658576
1025.78,0.02389769420294376
1021.78,0.023122315907068716
1017.78,0.022109773545164035
1013.78,0.02078144576351422
1009.79,0.01961218557897544
1005.79,0.0185017050174906
1001.79,0.016644445746375303
997.79,0.01388246462740195
993.79,0.011301091219843228
989.8,0.009962495144415202
985.8,0.00965343773587656
981.8,0.009439404173784525
977.8,0.008869282533829853
973.81,0.00803555901109202
969.81,0.006934005546579507
965.81,0.005285331468582111
961.81,0.002642631397413133
957.82,-0.0015202908441755841
953.82,-0.0070420809588358675
949.82,-0.011993238810026983
945.82,-0.01344437910903537
941.83,-0.010411515403148872
937.83,-0.005181913292754282
933.83,-0.0007341045031737728
929.83,0.0020771714960221774
925.84,0.003906919908564857
921.84,0.0048019440427357896
917.84,0.004397590731550237
913.84,0.003340450031505706
909.84,0.002862719405778461
905.85,0.0032708988754948636
901.85,0.004083665396459674
897.85,0.005161437259622264
893.85,0.006259605702546463
889.86,0.006265013445177889
885.86,0.0044459079672936625
881.86,0.002067711632963761
877.86,0.0010671962351227263
873.87,0.0013405177906632704
869.87,0.0012368590729823353
865.87,0.0003567527120142012
861.87,-0.00013687360468461404
857.88,0.0003054580069537169
853.88,0.0013613340307849844
849.88,0.003172073560524128
845.88,0.005625036743459252
841.89,0.006899901404069594
837.89,0.005491640275697169
833.89,0.002769330434903936
829.89,0.0007853206193756089
825.89,-0.0010458080525891297
821.9,-0.003973702109279255
817.9,-0.005178262866814429
813.9,-5.0080511071963485e-05
809.9,0.009657346184152482
805.91,0.016730944953542645
801.91,0.01748557460724108
797.91,0.015254508007628453
793.91,0.016241064642522396
789.92,0.023900365730175954
785.92,0.038190916530377206
781.92,0.05552891381325897
777.92,0.07208278600776397
773.93,0.06822233041534331
769.93,0.0374311906939192
765.93,0.017604119020805387
761.93,-0.045770241327468986
757.94,-0.07724045322781481
753.94,0.0696324646878197
749.94,0.07042696556890315
745.94,-0.0027379010461351383
741.95,-0.10822426985861788
737.95,-0.13063671828817924
733.95,-0.19429040145742904
729.95,-0.1935451254358862
725.95,-0.21911907986436358
721.96,-0.0281975329747276
717.96,0.02302306782370933
713.96,-0.012363471267171466
709.96,-0.03179428428471298
705.97,-0.09751569787821959
701.97,-0.273322164416478
697.97,-0.3096703047781612
693.97,-0.44522278454406905
689.98,-0.2952917509927265
685.98,-0.626521991938399
681.98,-0.3822432867885812
677.98,-0.24708045270340967
673.99,0.06885093110904858
669.99,0.18066823747196165
665.99,0.10186181354879294
661.99,0.2940951551752889
658.0,0.2995173773674367
654.0,0.1974326608828423
650.0,-0.05904396335118057
