wavenumber,transmittance
4000.0,-0.011517378757051715
3996.0,-0.01262053389478783
3992.0,-0.01378518274695775
3988.01,-0.015842336289842572
3984.01,-0.017282064408564113
3980.01,-0.016223144412153043
3976.01,-0.013406375560147007
3972.02,-0.010760533516914483
3968.02,-0.008565273602079811
3964.02,-0.006311471548501256
3960.02,-0.005047959561018234
3956.03,-0.006372001528505138
3952.03,-0.009625079554850369
3948.03,-0.012318671448299824
3944.03,-0.01363823699102781
3940.04,-0.014770310599886639
3936.04,-0.01627672075380254
3932.04,-0.017754272186025186
3928.04,-0.019272109704429167
3924.05,-0.020700150717596944
3920.05,-0.020646980596467628
3916.05,-0.019209134150711932
3912.05,-0.020027254262129007
3908.05,-0.025978864989613652
3904.06,-0.03377186264817722
3900.06,-0.03588254708944785
3896.06,-0.03187438588358351
3892.06,-0.029099956189431782
3888.07,-0.03102377306920188
3884.07,-0.033797970770692506
3880.07,-0.033967260952228684
3876.07,-0.03397874524220173
3872.08,-0.03647647434500782
3868.08,-0.03883661014823267
3864.08,-0.03760172624841058
3860.08,-0.03437488062305224
3856.09,-0.03270219299242715
3852.09,-0.03342377213712924
3848.09,-0.035466025217721436
3844.09,-0.0385017047793017
3840.1,-0.041377754298232414
3836.1,-0.04100950592906171
3832.1,-0.03764226697584625
3828.1,-0.0361652458265826
3824.11,-0.0378720632177666
3820.11,-0.03778680852958627
3816.11,-0.032550353028262084
3812.11,-0.027666262817321215
3808.11,-0.028318099015041075
3804.12,-0.03093095913470511
3800.12,-0.02779945428792304
3796.12,-0.0199696724121141
3792.12,-0.015765855915213418
3788.13,-0.01768450438643116
3784.13,-0.021350982539729127
3780.13,-0.022419163618536117
3776.13,-0.021824315647356138
3772.14,-0.02258940665447876
3768.14,-0.025047488533939986
3764.14,-0.02812560287746502
3760.14,-0.032760371201586994
3756.15,-0.040820315660945995
3752.15,-0.05150994802190778
3748.15,-0.060416336417774746
3744.15,-0.06430702594517292
3740.16,-0.06407883335462233
3736.16,-0.060670922349582726
3732.16,-0.05435875257592649
3728.16,-0.047157307659121926
3724.16,-0.042083182054209675
3720.17,-0.04071324337409675
3716.17,-0.04194996102632441
3712.17,-0.041788779005120645
3708.17,-0.03613235169482194
3704.18,-0.026850981997420136
3700.18,-0.02095382612901118
3696.18,-0.022614725122798267
3692.18,-0.028429429062826
3688.19,-0.030810844530725825
3684.19,-0.028640778070972903
3680.19,-0.028071401445765726
3676.19,-0.030755060004180407
3672.2,-0.028980117374653034
3668.2,-0.01923185463531473
3664.2,-0.011816625622759164
3660.2,-0.016284686034930454
3656.21,-0.03201439352871481
3652.21,-0.04661660852596075
3648.21,-0.0448499011655341
3644.21,-0.03133176377550901
3640.21,-0.021809209451288555
3636.22,-0.021628525181031148
3632.22,-0.026548028784182873
3628.22,-0.029957908189954627
3624.22,-0.029791568825011775
3620.23,-0.028767241140634146
3616.23,-0.02780287559636914
3612.23,-0.024296326601430177
3608.23,-0.017479549214139065
3604.24,-0.011773004811117562
3600.24,-0.011977028677245231
3596.24,-0.018199290347141926
3592.24,-0.025500732922928104
3588.25,-0.02732231964761788
3584.25,-0.02200287326986136
3580.25,-0.014526820390717694
3576.25,-0.010654482576450684
3572.26,-0.011925630687295857
3568.26,-0.014893021221408911
3564.26,-0.014410966825870038
3560.26,-0.00996383330686584
3556.26,-0.005776664247334677
3552.27,-0.004508539324073415
3548.27,-0.004464901519239504
3544.27,-0.0027195140830759464
3540.27,0.00022084339322873958
3536.28,0.001467228079099072
3532.28,0.0006505679833133417
3528.28,0.0009463782162211307
3524.28,0.00528475006266259
3520.29,0.012131818938821976
3516.29,0.016745632916739972
3512.29,0.016307239772180668
3508.29,0.012736199523473159
3504.3,0.010970004588961224
3500.3,0.01403442599990043
3496.3,0.019651886258881878
3492.3,0.02285147810278016
3488.31,0.021334085794194727
3484.31,0.01719070195944478
3480.31,0.0140973862437906
3476.31,0.013713530810440822
3472.32,0.014963913171138368
3468.32,0.015984738445022864
3464.32,0.015623346540858922
3460.32,0.0138647006686266
3456.32,0.011821708996149781
3452.33,0.01089802329297657
3448.33,0.011549649787340934
3444.33,0.013103287550701807
3440.33,0.015327027178302425
3436.34,0.018607150078725928
3432.34,0.022206220251121976
3428.34,0.02404277403708501
3424.34,0.023110322510476292
3420.35,0.021152022685900065
3416.35,0.020864236191022525
3412.35,0.02297221663751821
3408.35,0.025909093387617644
3404.36,0.02769779732226005
3400.36,0.027198818578950606
3396.36,0.02441833683187841
3392.36,0.020769594293100005
3388.37,0.018418598997153285
3384.37,0.01826075350312195
3380.37,0.018998453224948142
3376.37,0.019054086662541037
3372.37,0.018394308547727858
3368.38,0.017639216268967944
3364.38,0.01676498430861635
3360.38,0.016132877244817854
3356.38,0.017205614002307024
3352.39,0.02042405938485599
3348.39,0.02340201234468215
3344.39,0.02352462438476316
3340.39,0.02139815410187959
3336.4,0.01984104729336148
3332.4,0.020043629529619564
3328.4,0.02053920548891591
3324.4,0.019902167131398946
3320.41,0.018243940783246874
3316.41,0.01611800042162452
3312.41,0.014106171769673374
3308.41,0.013718127057408
3304.42,0.016197363997158543
3300.42,0.019767977474853458
3296.42,0.0206751504307007
3292.42,0.017839713218915858
3288.42,0.014440600200045443
3284.43,0.013626979002633566
3280.43,0.014489452010521885
3276.43,0.014402705058706335
3272.43,0.013177492270803497
3268.44,0.012448736557158172
3264.44,0.012365312319948531
3260.44,0.011674169522675706
3256.44,0.010605028239780937
3252.45,0.010929941591778935
3248.45,0.012881049386065883
3244.45,0.014470024010003598
3240.45,0.014432590623016429
3236.46,0.013976220847803374
3232.46,0.01469479388462474
3228.46,0.016086650182272243
3224.46,0.01637935177119157
3220.47,0.015065386634836885
3216.47,0.01335283386115729
3212.47,0.012354651761664007
3208.47,0.011837877194148867
3204.47,0.01105008641066119
3200.48,0.01017452297133464
3196.48,0.010278651270268842
3192.48,0.011843421719592545
3188.48,0.013782939076877627
3184.49,0.014449458798732523
3180.49,0.01349306495877458
3176.49,0.012114029176055375
3172.49,0.011415697804352304
3168.5,0.011171342852663666
3164.5,0.01075843801718901
3160.5,0.010561626001153126
3156.5,0.011455456520625223
3152.51,0.013150530510528632
3148.51,0.014187086929027872
3144.51,0.013636990049000755
3140.51,0.012050527252235321
3136.52,0.010383178446906212
3132.52,0.008680118364480398
3128.52,0.006664320198742583
3124.52,0.0050502784761614
3120.53,0.005054849341825226
3116.53,0.006536386471383295
3112.53,0.007703347423106648
3108.53,0.00718686526342149
3104.53,0.005793381938240014
3100.54,0.005406201513061629
3096.54,0.00648711961412168
3092.54,0.007763424956977107
3088.54,0.008402089320170131
3084.55,0.009110573862118184
3080.55,0.01067780562651899
3076.55,0.012396087165206428
3072.55,0.012961549127729833
3068.56,0.01237778632873865
3064.56,0.01179257600842891
3060.56,0.011695661160091794
3056.56,0.011335376352513846
3052.57,0.009964225246673054
3048.57,0.007722721036648818
3044.57,0.005155658941819099
3040.57,0.0027681705699767536
3036.58,0.0015287917209701324
3032.58,0.0029159808050371883
3028.58,0.007331711510851768
3024.58,0.012568100406106023
3020.58,0.014794156197045036
3016.59,0.011865656882415407
3012.59,0.005426149573548755
3008.59,-0.0010539995678763292
3004.59,-0.00541420514444281
3000.6,-0.007863593061534765
2996.6,-0.010152583242573673
2992.6,-0.01399652000428379
2988.6,-0.019975424978193042
2984.61,-0.02747196789952093
2980.61,-0.034990968535611414
2976.61,-0.040350103780325955
2972.61,-0.041288505611490264
2968.62,-0.03697982102374539
2964.62,-0.02941594169085859
2960.62,-0.0222608884208538
2956.62,-0.017942299378547265
2952.63,-0.01658974745036184
2948.63,-0.01732416488769697
2944.63,-0.019315560748094755
2940.63,-0.02150875421884173
2936.63,-0.022550198645530487
2932.64,-0.02194417488404038
2928.64,-0.020618975544812356
2924.64,-0.019583125328726747
2920.64,-0.018655191247495418
2916.65,-0.01734185108509752
2912.65,-0.016203963273473374
2908.65,-0.0161312586238619
2904.65,-0.016985117062342153
2900.66,-0.017754272062571873
2896.66,-0.01761694249246388
2892.66,-0.016676858494585327
2888.66,-0.015781509782387255
2884.67,-0.01569928776970915
2880.67,-0.016268757972337705
2876.67,-0.016393234219907488
2872.67,-0.015208329331169364
2868.68,-0.013170676514746
2864.68,-0.01148994804615534
2860.68,-0.010556779871549292
2856.68,-0.009773785845520536
2852.68,-0.008915325665659772
2848.69,-0.008711568121158711
2844.69,-0.009663554371071388
2840.69,-0.0112938851920907
2836.69,-0.013131501207665994
2832.7,-0.01533180678337363
2828.7,-0.017809191632292866
2824.7,-0.01968696116927434
2820.7,-0.02035677579837674
2816.71,-0.020327675323606985
2812.71,-0.020218263524171422
2808.71,-0.019546897375453762
2804.71,-0.017575806288278293
2800.72,-0.01483030562649263
2796.72,-0.01259370724231174
2792.72,-0.011225090125118034
2788.72,-0.010005141273296218
2784.73,-0.008545775520922269
2780.73,-0.0072796293956994855
2776.73,-0.006387779385138866
2772.73,-0.005285031494739076
2768.74,-0.003631883846922099
2764.74,-0.002100403905914804
2760.74,-0.0015847226440995794
2756.74,-0.0020652592216308836
2752.74,-0.002688905710953346
2748.75,-0.0027855430474915096
2744.75,-0.0024365503302995768
2740.75,-0.002160966454044403
2736.75,-0.0023076270364889885
2732.76,-0.002763872272049446
2728.76,-0.0031499408460141983
2724.76,-0.0032512863602381595
2720.76,-0.003209989904105222
2716.77,-0.003195113963905407
2712.77,-0.0030792938103473607
2708.77,-0.0026719256211171372
2704.77,-0.002140627388077852
2700.78,-0.0018842342847956127
2696.78,-0.0019910747205907674
2692.78,-0.0021410638299520866
2688.78,-0.0021094552254252857
2684.79,-0.002080959876753204
2680.79,-0.002286646404386857
2676.79,-0.0025224173867923506
2672.79,-0.0022851346630687165
2668.79,-0.0013642936181111065
2664.8,-0.00017202717091737828
2660.8,0.0005991198701901486
2656.8,0.0006376874375918764
2652.8,0.0003082703112233312
2648.81,0.0002637756529637091
2644.81,0.0006656735781625928
2640.81,0.0009435106684081004
2636.81,0.000504526144797143
2632.82,-0.00044267093731273615
2628.82,-0.0009700000333676927
2624.82,-0.00029420388950480644
2620.82,0.0015955574638798192
2616.83,0.003929791188942928
2612.83,0.005412441047418993
2608.83,0.004951413827758481
2604.83,0.0024160578573899586
2600.84,-0.0015682026732150526
2596.84,-0.006202292951770606
2592.84,-0.010229284222288294
2588.84,-0.011479965292474246
2584.84,-0.0086407927281355
2580.85,-0.004009246364837997
2576.85,-0.0015713413113277318
2572.85,-0.0021025951990804024
2568.85,-0.002497618317428699
2564.86,-0.0007040795723266928
2560.86,0.0006836077755280829
2556.86,-0.0013381953594300226
2552.86,-0.005353651042220866
2548.87,-0.007526334124128114
2544.87,-0.006408146313006052
2540.87,-0.003452114347014996
2536.87,0.0001573866653335641
2532.88,0.0034743251445880346
2528.88,0.004297127714955027
2524.88,0.0005224764624177317
2520.88,-0.0065485826454503675
2516.89,-0.012741467957279075
2512.89,-0.01591241197474376
2508.89,-0.016960084261875424
2504.89,-0.0161916495668312
2500.89,-0.013245603714834613
2496.9,-0.009931506390125586
2492.9,-0.009252930138957597
2488.9,-0.011514197329850765
2484.9,-0.01348444139290693
2480.91,-0.012550285862072543
2476.91,-0.009256228849647281
2472.91,-0.0052895431120104875
2468.91,-0.0014891349611766413
2464.92,0.001942899473420646
2460.92,0.004784735338590517
2456.92,0.006689338602390927
2452.92,0.00759119639275385
2448.93,0.007326334693720774
2444.93,0.005481667391104594
2440.93,0.0023789858629022984
2436.93,-0.0008452326613650266
2432.94,-0.003303018906889721
2428.94,-0.004853860177429909
2424.94,-0.0054635560375798685
2420.94,-0.00507818813389153
2416.95,-0.004138097093438131
2412.95,-0.0034091216285909737
2408.95,-0.002911284228290416
2404.95,-0.0019306806086468557
2400.95,-0.0006037972972901817
2396.96,-0.00018245924974413102
2392.96,-0.0015438917827184165
2388.96,-0.003790058590321465
2384.96,-0.004868413269579234
2380.97,-0.0035684512589479887
2376.97,-0.0006113847529924145
2372.97,0.001462377889900909
2368.97,0.0005589196472727698
2364.98,-0.0021793528372067656
2360.98,-0.0033797491416036507
2356.98,-0.0021088111961137606
2352.98,-0.0007294675585304456
2348.99,-0.0008691064755827784
2344.99,-0.0017351284868714393
2340.99,-0.0014363201404266935
2336.99,0.0006196922659807143
2333.0,0.002886235670440417
2329.0,0.0037753519809731527
2325.0,0.0028588640850826467
2321.0,0.00035563859124971686
2317.0,-0.0028981780513558895
2313.01,-0.005074140782511711
2309.01,-0.004413568697989493
2305.01,-0.0012432622908428942
2301.01,0.00254976480488393
2297.02,0.005145701025836375
2293.02,0.00522955749365686
2289.02,0.0026306768033900916
2285.02,-0.0017243115537325898
2281.03,-0.004756450558809257
2277.03,-0.0019251985350880905
2273.03,0.005076374662441721
2269.03,0.009257252963957002
2265.04,0.0035984984285913285
2261.04,-0.012349253216763615
2257.04,-0.029365103343015644
2253.04,-0.03888290354557743
2249.05,-0.03161729341588705
2245.05,-0.00956843118779659
2241.05,0.013915280597828783
2237.05,0.032954353079290226
2233.05,0.044871836837609674
2229.06,0.049114100576284625
2225.06,0.04254275468162689
2221.06,0.026058836370088483
2217.06,0.012540188433015097
2213.07,0.009597338648050707
2209.07,0.016743793462872664
2205.07,0.023480885746288288
2201.07,0.02295369847732097
2197.08,0.018904320267275204
2193.08,0.017093987866154625
2189.08,0.007557513746810594
2185.08,-0.015854331964034817
2181.09,-0.03822721257556523
2177.09,-0.04702574870910621
2173.09,-0.03163866371308245
2169.09,-0.0035183187169912436
2165.1,0.013715147434710365
2161.1,0.01953597406007096
2157.1,0.027734280763416934
2153.1,0.033846148610810145
2149.11,0.030551896836031857
2145.11,0.027684166960493584
2141.11,0.02342606478043395
2137.11,0.017793043072923034
2133.11,0.010646382591836272
2129.12,0.006464846227956165
2125.12,0.006517851106296629
2121.12,0.00702818529180144
2117.12,0.0013385087576946652
2113.13,-0.013399519135909794
2109.13,-0.03244591149112833
2105.13,-0.04498449442707412
2101.13,-0.043615427804954025
2097.14,-0.03662852359918822
2093.14,-0.03357353679777478
2089.14,-0.03181278482482103
2085.14,-0.024285946835890887
2081.15,-0.010581788629501295
2077.15,0.00905457215363583
2073.15,0.032778500981550225
2069.15,0.04377469462538609
2065.16,0.0309648393779835
2061.16,0.007422114727933469
2057.16,-0.0008622814640866575
2053.16,0.007713116637332302
2049.16,0.018608418632705737
2045.17,0.03821768486569478
2041.17,0.058693147645342475
2037.17,0.05738112774682966
2033.17,0.04629194459767419
2029.18,0.013697374527628564
2025.18,-0.021352679067033434
2021.18,-0.015393454315522326
2017.18,-0.006770698007818758
2013.19,-0.017773124187636047
2009.19,-0.014262305898392617
2005.19,0.006047752973388214
2001.19,0.021465306611247476
1997.2,0.02772483663141523
1993.2,0.020076273918577893
1989.2,0.003759015189347273
1985.2,-0.026001388400936312
1981.21,-0.06098830972852375
1977.21,-0.04860628289245307
1973.21,-0.024376160211897934
1969.21,-0.010427671233656316
1965.21,-0.0042227756383886525
1961.22,0.004566670927770182
1957.22,0.002662651524365735
1953.22,-0.018556958175090673
1949.22,-0.05120501484939258
1945.23,-0.062049827480449904
1941.23,-0.04273759075060974
1937.23,-0.030013237114171205
1933.23,-0.03729330605717605
1929.24,-0.04348144192321047
1925.24,-0.031506251079883404
1921.24,-0.0160626966130007
1917.24,-0.009687926797551991
1913.25,-0.008849492068320442
1909.25,-0.008664884765136528
1905.25,-0.011681587994168359
1901.25,-0.01847747783339708
1897.26,-0.021365025922464184
1893.26,-0.0160836377852485
1889.26,-0.009451795266188836
1885.26,-0.0058766149892595515
1881.26,-0.003961610631888034
1877.27,-0.003950711825507396
1873.27,-0.008677800607311832
1869.27,-0.015626621212959643
1865.27,-0.016545096997547443
1861.28,-0.010750917292555763
1857.28,-0.007896089778316125
1853.28,-0.011890504377070253
1849.28,-0.01637006388889021
1845.29,-0.015346500256431875
1841.29,-0.013771836521526859
1837.29,-0.016821220314500715
1833.29,-0.020717775371150268
1829.3,-0.019409990215604852
1825.3,-0.014862553918120188
1821.3,-0.012165720897070947
1817.3,-0.01153653526840553
1813.31,-0.011341093717651001
1809.31,-0.012663652993072932
1805.31,-0.01679115380173465
1801.31,-0.02154883508544256
1797.32,-0.023022851257269033
1793.32,-0.02084842527822217
1789.32,-0.01780406470363869
1785.32,-0.016003648856415184
1781.32,-0.016695761040314627
1777.33,-0.020366842431625762
1773.33,-0.024513750018265987
1769.33,-0.024293520191814983
1765.33,-0.020024394731965656
1761.34,-0.01807422557886292
1757.34,-0.02176041148378058
1753.34,-0.027275259797436703
1749.34,-0.02908088565739238
1745.35,-0.028830720367841567
1741.35,-0.030594324956670825
1737.35,-0.031651242015331274
1733.35,-0.027247031793295726
1729.36,-0.021885846297161792
1725.36,-0.02251721422360432
1721.36,-0.02860778834171424
1717.36,-0.03307154155254016
1713.37,-0.03358251762990651
1709.37,-0.03635730752266945
1705.37,-0.044000543808676726
1701.37,-0.04943387719469515
1697.37,-0.04674878098862136
1693.38,-0.04253208246944655
1689.38,-0.04290010487582162
1685.38,-0.04534618990766542
1681.38,-0.045348770695071594
1677.39,-0.04346162721070526
1673.39,-0.0414030794210334
1669.39,-0.038159630617803614
1665.39,-0.03469215924788959
1661.4,-0.03563686574591442
1657.4,-0.04326424184362941
1653.4,-0.051225382958554826
1649.4,-0.04949079983348372
1645.41,-0.04055068355037923
1641.41,-0.03252867111867007
1637.41,-0.027128712451622093
1633.41,-0.02268487778412153
1629.42,-0.01930184506427217
1625.42,-0.017878525684646793
1621.42,-0.017072285044169164
1617.42,-0.014490251117050552
1613.42,-0.010214862076667108
1609.43,-0.006235589252312757
1605.43,-0.0037210611295906172
1601.43,-0.0028205447920495175
1597.43,-0.003314660099512916
1593.44,-0.004597862105338524
1589.44,-0.006283488056973464
1585.44,-0.009321133662879982
1581.44,-0.015007485943718604
1577.45,-0.02233223535157282
1573.45,-0.028509116983786685
1569.45,-0.0338983215021787
1565.45,-0.04173620156773953
1561.46,-0.05087712157736422
1557.46,-0.05379966250603816
1553.46,-0.050641734536980954
1549.46,-0.05105157887441987
1545.47,-0.0582547754666784
1541.47,-0.06338977211173649
1537.47,-0.05826619307623163
1533.47,-0.05210422300793413
1529.47,-0.05406755537495023
1525.48,-0.06132010886373993
1521.48,-0.06519284923092623
1517.48,-0.06494478802350805
1513.48,-0.0656418511809973
1509.49,-0.06452749729754212
1505.49,-0.055883034443298556
1501.49,-0.04459641151550867
1497.49,-0.03836029076051779
1493.5,-0.036207807026819507
1489.5,-0.03284799408359597
1485.5,-0.02890068671755959
1481.5,-0.029744673162967403
1477.51,-0.03594256927583732
1473.51,-0.04062106208597248
1469.51,-0.039447959238290795
1465.51,-0.03842782108285001
1461.52,-0.042362485628678226
1457.52,-0.045385264069697465
1453.52,-0.03984035634278698
1449.52,-0.03047806829966607
1445.53,-0.02497925906771623
1441.53,-0.023749637960262044
1437.53,-0.022674842755089873
1433.53,-0.020501423378008227
1429.53,-0.02000909411225168
1425.54,-0.02181705982271666
1421.54,-0.02236903846216142
1417.54,-0.019269970447516254
1413.54,-0.015363205599889011
1409.55,-0.014652437311103512
1405.55,-0.01837036239708969
1401.55,-0.025004589202158707
1397.55,-0.03164400837211044
1393.56,-0.03578257305315242
1389.56,-0.03715347082198492
1385.56,-0.03733600599090594
1381.56,-0.03710841060249134
1377.57,-0.03540802770186065
1373.57,-0.03149426857583937
1369.57,-0.02676027359381217
1365.57,-0.022861057319345065
1361.58,-0.019522157775775865
1357.58,-0.015916685361778343
1353.58,-0.013077663138536257
1349.58,-0.012862048888977034
1345.58,-0.015017320872989518
1341.59,-0.016539468172796196
1337.59,-0.014868175212432003
1333.59,-0.011038013963983372
1329.59,-0.008078751396097678
1325.6,-0.007586712659566914
1321.6,-0.008638835827590997
1317.6,-0.009229800616728196
1313.6,-0.008357567832428452
1309.61,-0.00683649377482708
1305.61,-0.006276130221812705
1301.61,-0.007438829751823903
1297.61,-0.009569343898754513
1293.62,-0.01115721773879683
1289.62,-0.01132472240326561
1285.62,-0.01035717798607105
1281.62,-0.009132252194486112
1277.63,-0.008380699704725506
1273.63,-0.00820775659936255
1269.63,-0.007998642254732347
1265.63,-0.0069576825939806075
1261.63,-0.005024873814668512
1257.64,-0.0029556727830650636
1253.64,-0.001267067584426046
1249.64,0.00029795174854202466
1245.64,0.0021730384482550186
1241.65,0.004483548035788584
1237.65,0.007281856004998297
1233.65,0.010687637817701587
1229.65,0.014703910658633718
1225.66,0.01961736998249064
1221.66,0.026943361842177216
1217.66,0.03604909793581923
1213.66,0.030594664773082703
1209.67,0.012887676676827275
1205.67,-0.0006642521911585653
1201.67,-0.00795050591780877
1197.67,-0.009009316891813918
1193.68,-0.005158627569295152
1189.68,0.000523911168262392
1185.68,0.005237904768497059
1181.68,0.008068087141905739
1177.68,0.00947341558622454
1173.69,0.010126851931258521
1169.69,0.010449491244992969
1165.69,0.010543888364965913
1161.69,0.010142300481863466
1157.7,0.008932648676173827
1153.7,0.00714994441557678
1149.7,0.00559438062336947
1145.7,0.004999130646764702
1141.71,0.005647362745652071
1137.71,0.007490544867318771
1133.71,0.010130376998113737
1129.71,0.012731953021769837
1125.72,0.014470622016112725
1121.72,0.01508940919140785
1117.72,0.014770717968243832
1113.72,0.01363258400080418
1109.73,0.011683289258363976
1105.73,0.009094088966633794
1101.73,0.006133857145656986
1097.73,0.003124515131512136
1093.74,0.0009067349195207852
1089.74,0.0006559275699140471
1085.74,0.0020995180410183015
1081.74,0.0025614246629400844
1077.74,-0.0004967248400310556
1073.75,-0.005996765099200517
1069.75,-0.009572321201210678
1065.75,-0.008161379692003822
1061.75,-0.00309880204186223
1057.76,0.0022694662403236164
1053.76,0.006190811300839483
1049.76,0.008865172357407334
1045.76,0.010727056091271135
1041.77,0.01171113999882685
1037.77,0.011782070467937358
1033.77,0.011103826620278805
1029.77,0.009738701986280594
1025.78,0.007895540777835962
1021.78,0.006237901246899744
1017.78,0.005171338960389363
1013.78,0.004094768694406104
1009.79,0.0022576388461631736
1005.79,0.0001732541966715448
1001.79,-0.0006460041602185593
997.79,0.0006644745736397242
993.79,0.0035465791994177247
989.8,0.006760521311040052
985.8,0.009317463742844005
981.8,0.010749501180715935
977.8,0.01109395593761979
973.81,0.010851359414799595
969.81,0.01058596134939463
965.81,0.010467401675674923
961.81,0.010504378218212262
957.82,0.0110118108089396
953.82,0.012252100632502386
949.82,0.013695965451628368
945.82,0.014340063762249576
941.83,0.013881726887780325
937.83,0.012966716039845616
933.83,0.01206346811962071
929.83,0.010806531089930203
925.84,0.008868477726941812
921.84,0.006808720075863937
917.84,0.005346974902076817
913.84,0.0045149133193370695
909.84,0.004065905683481233
905.85,0.004134998742904733
901.85,0.005034330677765063
897.85,0.006586130773954459
893.85,0.00802609969029814
889.86,0.008660839068805926
885.86,0.008276006256914836
881.86,0.0071558731432366145
877.86,0.006012545428743284
873.87,0.005552443065732151
869.87,0.005757566847994753
865.87,0.005901052939423676
861.87,0.005730663764436508
857.88,0.006106251226025754
853.88,0.00799216573193694
849.88,0.010966891793405115
845.88,0.013423658644780016
841.89,0.014239444043894482
837.89,0.013480448780121349
833.89,0.011636390895395098
829.89,0.009066689751320054
825.89,0.0066166497632831126
821.9,0.005400484489180735
817.9,0.005845976383704328
813.9,0.007451902427444999
809.9,0.008950262299810885
805.91,0.008940577291823779
801.91,0.006013847131771638
797.91,0.0008820401109096154
793.91,-0.0015916916909834156
789.92,0.003923305296120894
785.92,0.016842077312124004
781.92,0.027253965982344253
777.92,0.02966611866483937
773.93,0.02025547476438605
769.93,-0.01675448052192796
765.93,-0.00404784276916903
761.93,-0.050863485615903814
757.94,-0.0206800667884679
753.94,0.023670558201707825
749.94,-0.09804960673820573
745.94,-0.0885348479897704
741.95,-0.10314073575952987
737.95,-0.1347584019763176
733.95,-0.17758173976445502
729.95,-0.18353901895782854
725.95,-0.17503805094990105
721.96,-0.08058058490853559
717.96,-0.03128600822580141
713.96,-0.006665479026046417
709.96,-0.02530009616719414
705.97,-0.08417087979906585
701.97,-0.17661705804916175
697.97,-0.24314661785698194
693.97,-0.4007725069550936
689.98,-0.288567836875643
685.98,-0.6293857013491161
681.98,-0.34311427187531995
677.98,-0.20905951474722967
673.99,-0.017508977635811884
669.99,0.018410183657931345
665.99,0.018044152515365966
661.99,0.16294968907746762
658.0,0.2329147749321812
654.0,0.1638725458518836
650.0,-0.08625388943054728
