wavenumber,transmittance
4000.0,-0.010063598372462148
3996.0,-0.009953856327766013
3992.0,-0.009846820652165762
3988.01,-0.011126889829477626
3984.01,-0.012463339760871767
3980.01,-0.011738889884545013
3976.01,-0.009337532161297355
3972.02,-0.0070206898627994865
3968.02,-0.0051542390512336255
3964.02,-0.0033676233063114173
3960.02,-0.0025868767791271665
3956.03,-0.003987650732186233
3952.03,-0.00655081301864553
3948.03,-0.007963112637971689
3944.03,-0.008029090990818595
3940.04,-0.008391399539383466
3936.04,-0.009727372422048196
3932.04,-0.011659379815331793
3928.04,-0.014292078487200455
3924.05,-0.017308127174547557
3920.05,-0.01860712515426878
3916.05,-0.017448632052987644
3912.05,-0.01730727319444723
3908.05,-0.021450326830221984
3904.06,-0.02720340232529687
3900.06,-0.027775382433231632
3896.06,-0.022857005341018317
3892.06,-0.01935134473998616
3888.07,-0.020752508203436517
3884.07,-0.023797339880105146
3880.07,-0.024934238491135612
3876.07,-0.02546444165440721
3872.08,-0.027280862914184852
3868.08,-0.028655996708383792
3864.08,-0.027654721250740873
3860.08,-0.025908658847769644
3856.09,-0.025684239980807166
3852.09,-0.02685786124889999
3848.09,-0.028704011479037624
3844.09,-0.03152714337247324
3840.1,-0.03421293265640838
3836.1,-0.03383148744360183
3832.1,-0.031137278143107298
3828.1,-0.03082657896158025
3824.11,-0.03320128695563372
3820.11,-0.03253286036915158
3816.11,-0.025946345693075423
3812.11,-0.01988289342493584
3808.11,-0.01945207853156357
3804.12,-0.020894335737103403
3800.12,-0.017433420661175224
3796.12,-0.010700676750288138
3792.12,-0.007898729527374576
3788.13,-0.010493207983754319
3784.13,-0.01437019845623539
3780.13,-0.016024073063709388
3776.13,-0.016226263207993297
3772.14,-0.016897023894382447
3768.14,-0.018090724198651778
3764.14,-0.01990038826178899
3760.14,-0.024069162057921676
3756.15,-0.031814593709384054
3752.15,-0.04156644827249228
3748.15,-0.04950465000483984
3744.15,-0.0533256235132707
3740.16,-0.0534822752746512
3736.16,-0.050304272639157786
3732.16,-0.044473149251195124
3728.16,-0.038331549741400905
3724.16,-0.0341070527667373
3720.17,-0.032520768863911996
3716.17,-0.03275869528749555
3712.17,-0.03199049768995142
3708.17,-0.02691402008412421
3704.18,-0.019020803524772454
3700.18,-0.014645787750114084
3696.18,-0.017631673166958666
3692.18,-0.02421865616792058
3688.19,-0.02635431278226615
3684.19,-0.022957322430018513
3680.19,-0.020885330354207525
3676.19,-0.022950791386496062
3672.2,-0.02278687179378448
3668.2,-0.01627409294346338
3664.2,-0.011034280774238747
3660.2,-0.015021083987722578
3656.21,-0.027833463279475324
3652.21,-0.0393810125866383
3648.21,-0.03761976367361096
3644.21,-0.02658830276256216
3640.21,-0.019031133337648727
3636.22,-0.019590891545355107
3632.22,-0.02540707143682256
3628.22,-0.030893655276179665
3624.22,-0.03291413190726178
3620.23,-0.03268035570432085
3616.23,-0.03156826114483693
3612.23,-0.02867287123946565
3608.23,-0.023630363583112796
3604.24,-0.019346726099358405
3600.24,-0.019309688530994774
3596.24,-0.023800932097277253
3592.24,-0.029095758553176906
3588.25,-0.030039459905067838
3584.25,-0.025504352354276706
3580.25,-0.019789597019405226
3576.25,-0.01752229578896323
3572.26,-0.019684044813182686
3568.26,-0.023527339011403615
3564.26,-0.02532510574804541
3560.26,-0.024513601738811945
3556.26,-0.02325330391184053
3552.27,-0.022330718158556515
3548.27,-0.020415343031700884
3544.27,-0.017030856984172105
3540.27,-0.014348852279894044
3536.28,-0.01432507870719835
3532.28,-0.015777483611529402
3528.28,-0.015577531815702551
3524.28,-0.011981734035539216
3520.29,-0.006786058430469591
3516.29,-0.0038735903575974557
3512.29,-0.005602504579663706
3508.29,-0.010418463852195019
3504.3,-0.0134775707423624
3500.3,-0.011206483637967295
3496.3,-0.005744552405772278
3492.3,-0.002860035924569071
3488.31,-0.005454995766093014
3484.31,-0.010775985409298694
3480.31,-0.013976236419933105
3476.31,-0.013347329383606044
3472.32,-0.011011369880877945
3468.32,-0.009557883880452814
3464.32,-0.01004439329194946
3460.32,-0.012138352505915719
3456.32,-0.014585127954540485
3452.33,-0.015978880649971862
3448.33,-0.015826370761718347
3444.33,-0.014723571455995958
3440.33,-0.012883541385586377
3436.34,-0.009990134526935071
3432.34,-0.006785300360236214
3428.34,-0.005237824128582357
3424.34,-0.00626981672891316
3420.35,-0.00821700374151924
3416.35,-0.008607017280612052
3412.35,-0.006778448904818807
3408.35,-0.0039375363243183675
3404.36,-0.0016964280172977585
3400.36,-0.0014327667062701641
3396.36,-0.003832298592978971
3392.36,-0.007751610402867994
3388.37,-0.010457378098598083
3384.37,-0.01034190612555756
3380.37,-0.008663987640028237
3376.37,-0.007517822499666693
3372.37,-0.007432734095196496
3368.38,-0.007999525199467507
3364.38,-0.009161030988171285
3360.38,-0.010171439650124528
3356.38,-0.009055460322452373
3352.39,-0.005251844554994211
3348.39,-0.0015393823397736196
3344.39,-0.0008543210027875444
3340.39,-0.002470409094566285
3336.4,-0.0034740690352605096
3332.4,-0.0030451274115500544
3328.4,-0.0029629946696519086
3324.4,-0.004299114792515239
3320.41,-0.006259790461763708
3316.41,-0.008092232393547652
3312.41,-0.009617650740255756
3308.41,-0.00974079680265625
3304.42,-0.007305806910507083
3300.42,-0.003958740628910435
3296.42,-0.003161976791114726
3292.42,-0.005670934786062317
3288.42,-0.00843555764155357
3284.43,-0.009009970153942023
3280.43,-0.008790967136012426
3276.43,-0.010011037077996655
3272.43,-0.012118230685262797
3268.44,-0.013290679560004563
3264.44,-0.013614657858699947
3260.44,-0.014288264226278697
3256.44,-0.014906555271156467
3252.45,-0.01410442789830959
3248.45,-0.012305586320513845
3244.45,-0.011426505531390024
3240.45,-0.012067562514818398
3236.46,-0.012878516062038667
3232.46,-0.01268349824068206
3228.46,-0.011834295497607773
3224.46,-0.011296315965010847
3220.47,-0.011467265111289298
3216.47,-0.012139717648445191
3212.47,-0.012911831585288087
3208.47,-0.01353460509012453
3204.47,-0.014123151947895197
3200.48,-0.01477219984694761
3196.48,-0.014897764913561625
3192.48,-0.013713502035825885
3188.48,-0.011737322061790942
3184.49,-0.010776367824312644
3180.49,-0.011694487381736462
3176.49,-0.013135119041921859
3172.49,-0.013354626044656929
3168.5,-0.012462425217469049
3164.5,-0.011641472754911088
3160.5,-0.011055663250079398
3156.5,-0.010060856257555916
3152.51,-0.00901183536765879
3148.51,-0.00909464128410156
3144.51,-0.010458259229642828
3140.51,-0.011899335050742962
3136.52,-0.01269499294591301
3132.52,-0.013477080144617954
3128.52,-0.014665340323895187
3124.52,-0.015241828494890374
3120.53,-0.014077029592622994
3116.53,-0.011868851976885557
3112.53,-0.010661004706330898
3108.53,-0.011472860997384203
3104.53,-0.0131477469010303
3100.54,-0.01378480315761061
3096.54,-0.012829311814290591
3092.54,-0.011281599906869205
3088.54,-0.010055126166607949
3084.55,-0.008977117174450114
3080.55,-0.007507166933408374
3076.55,-0.005890054454792085
3072.55,-0.004965089846593586
3068.56,-0.004986613977248883
3064.56,-0.005352865076206841
3060.56,-0.005582208104519162
3056.56,-0.00595202538059281
3052.57,-0.00695464693102955
3048.57,-0.008636489282982048
3044.57,-0.010684765696394195
3040.57,-0.01267693081984132
3036.58,-0.013827501357471197
3032.58,-0.012982084519476127
3028.58,-0.009639268136714445
3024.58,-0.00490392315367201
3020.58,-0.0009134538210123222
3016.59,0.0008544578133840991
3012.59,0.0007621023345249361
3008.59,0.0005614415193064409
3004.59,0.0018284653360760225
3000.6,0.004737635419791525
2996.6,0.008240892840677826
2992.6,0.01141765118455109
2988.6,0.014425856913309297
2984.61,0.017863648121443296
2980.61,0.02149631052680534
2976.61,0.0241604372919509
2972.61,0.0248442366123861
2968.62,0.023568233108959745
2964.62,0.02133697109897246
2960.62,0.019352027217857344
2956.62,0.01819764066758035
2952.63,0.017680985334254197
2948.63,0.01726600419762617
2944.63,0.016716739170646387
2940.63,0.016301576929634774
2936.63,0.01622576245174996
2932.64,0.01598804921015293
2928.64,0.014869672079053847
2924.64,0.013036969456884193
2920.64,0.011542383463070308
2916.65,0.010981859307464412
2912.65,0.010733759590005061
2908.65,0.009997608330655976
2904.65,0.008718081147025838
2900.66,0.007291359974646923
2896.66,0.00612294330184562
2892.66,0.005524481574288288
2888.66,0.005562751895998259
2884.67,0.005814207015459448
2880.67,0.005628281268792987
2876.67,0.004824788495367667
2872.67,0.0037874732748704384
2868.68,0.002843359035878585
2864.68,0.0020290337868970783
2860.68,0.0015823385510329892
2856.68,0.001988888489165029
2852.68,0.003166848457473642
2848.69,0.004172946959267117
2844.69,0.004298960437521624
2840.69,0.003851136620494293
2836.69,0.00331804657241082
2832.7,0.0026811474533339295
2828.7,0.0019797599420392498
2824.7,0.0017051047162855177
2820.7,0.001990931179808954
2816.71,0.0021466533459922246
2812.71,0.001719633711449113
2808.71,0.0014134329602222134
2804.71,0.0019710746648289867
2800.72,0.002702405525457063
2796.72,0.0023333335479925124
2792.72,0.0009548557705843994
2788.72,-5.696711185547952e-05
2784.73,-5.171400273111179e-05
2780.73,0.00019928865447578666
2776.73,8.896355244211382e-05
2772.73,0.00022968801315813303
2768.74,0.00127378172929948
2764.74,0.0025826026494323445
2760.74,0.0029183790996011264
2756.74,0.0020125194780958137
2752.74,0.0007767086534209346
2748.75,0.00012325667096712775
2744.75,0.00017118668905009501
2740.75,0.0005261873429853008
2736.75,0.0008448483976511503
2732.76,0.0010289526424459069
2728.76,0.0011451341995605529
2724.76,0.0013025210649680753
2720.76,0.0015429194544975215
2716.77,0.0018496537261326173
2712.77,0.002227169040222134
2708.77,0.0026636785975952693
2704.77,0.0030040931567260083
2700.78,0.003039103454427485
2696.78,0.002838897084305087
2692.78,0.0028058456734547602
2688.78,0.003238848081185625
2684.79,0.003970323225709102
2680.79,0.00462885577381217
2676.79,0.005189024438450297
2672.79,0.00603318856169871
2668.79,0.007418014066194592
2664.8,0.009027397705032355
2660.8,0.01021897237790592
2656.8,0.010668177040727454
2652.8,0.010659748130372118
2648.81,0.010746374890508895
2644.81,0.011097349336995289
2640.81,0.011289538162113767
2636.81,0.010824559724445628
2632.82,0.009826360386973992
2628.82,0.00915572008485054
2624.82,0.009704614250928133
2620.82,0.01150781599601501
2616.83,0.013556824550560736
2612.83,0.01450615546332313
2608.83,0.013818202586923166
2604.83,0.011900988351031448
2600.84,0.00902890981511254
2596.84,0.0050261193735245124
2592.84,0.0006601475222642221
2588.84,-0.0016346566831583033
2584.84,-0.00017146228995669477
2580.85,0.003045521563223408
2576.85,0.0043897569967008086
2572.85,0.0030652274734861915
2568.85,0.0016425985789762822
2564.86,0.002174044366698328
2560.86,0.0031601837556478937
2556.86,0.002325685026172565
2552.86,-5.7139197151109995e-05
2548.87,-0.0019471159734625121
2544.87,-0.0017574154432014
2540.87,0.000676762757346858
2536.87,0.004673143870318775
2532.88,0.008260424648942994
2528.88,0.008743202018900966
2524.88,0.004918046771379973
2520.88,-0.001353914942290568
2516.89,-0.006793210410426074
2512.89,-0.010036120451496015
2508.89,-0.011340172097673157
2504.89,-0.010114100432503579
2500.89,-0.006127030957657834
2496.9,-0.0017521408656969465
2492.9,-1.3560841380010069e-05
2488.9,-0.001204761576500818
2484.9,-0.0027647434087293395
2480.91,-0.00251197858593912
2476.91,-0.00041433516082316213
2472.91,0.0027110106027847386
2468.91,0.006226668023552427
2464.92,0.00952812532074053
2460.92,0.011884387155040872
2456.92,0.012804483869896178
2452.92,0.012585765371886173
2448.93,0.011829931883541095
2444.93,0.01057215305364292
2440.93,0.008546379993804951
2436.93,0.005776288415152198
2432.94,0.0030412557138018628
2428.94,0.001346801423929173
2424.94,0.0009816133724735322
2420.94,0.001217872497157579
2416.95,0.0012261785427332226
2412.95,0.0008066685696822042
2408.95,0.00043753379816995064
2404.95,0.0005940935384253845
2400.95,0.0008586562151663216
2396.96,0.0003492761104785594
2392.96,-0.0013049220472953395
2388.96,-0.003354719144412299
2384.96,-0.004270751544252815
2380.97,-0.0029826105704114083
2376.97,2.8024159684881395e-05
2372.97,0.002371748088074461
2368.97,0.0018511132448063477
2364.98,-0.000548310427373517
2360.98,-0.0016497569464746834
2356.98,-0.0006447644395733598
2352.98,0.00033343123984348006
2348.99,2.0408221128415897e-05
2344.99,-0.0006314160965382987
2340.99,8.200407704295025e-05
2336.99,0.002517597677606792
2333.0,0.005234843002200583
2329.0,0.006749816162822131
2325.0,0.006291109569031727
2321.0,0.003611204885990783
2317.0,-0.00034841035374550376
2313.01,-0.0031054636341144456
2309.01,-0.0026172536138405525
2305.01,0.0004803152147868925
2301.01,0.004267571133883272
2297.02,0.0073541307111862665
2293.02,0.008469742306492176
2289.02,0.00718576056235803
2285.02,0.0048533418200633355
2281.03,0.004810402450470305
2277.03,0.009746720855749302
2273.03,0.016263108306130973
2269.03,0.019173216127563703
2265.04,0.014956143416130873
2261.04,0.0021963590903948775
2257.04,-0.014282467646301854
2253.04,-0.027052042815683672
2249.05,-0.023376271728440166
2245.05,-0.0033433898843937652
2241.05,0.017924186932682322
2237.05,0.03409484205501977
2233.05,0.0450448818284022
2229.06,0.04997958659887826
2225.06,0.04422541740078736
2221.06,0.02828438474217404
2217.06,0.011368280179532265
2213.07,0.0018846095037492044
2209.07,0.004536199967668575
2205.07,0.012932171665683488
2201.07,0.02309908827664063
2197.08,0.03020434871067748
2193.08,0.03306007683287979
2189.08,0.0264064439151548
2185.08,0.005898227872678564
2181.09,-0.015890394655584027
2177.09,-0.02604614751738263
2173.09,-0.013690026943097355
2169.09,0.009449758587319907
2165.1,0.022393993903270914
2161.1,0.03333016095121281
2157.1,0.055679522065138924
2153.1,0.0780628467489938
2149.11,0.07342222044161781
2145.11,0.051474784365622646
2141.11,0.03333460623882077
2137.11,0.022424842125759105
2133.11,0.013405791202813036
2129.12,0.007128280598856896
2125.12,0.004712651222774484
2121.12,0.005376011802331378
2117.12,0.003165600197746323
2113.13,-0.009058403465350511
2109.13,-0.029513032230674627
2105.13,-0.043990394710018615
2101.13,-0.04091677991752211
2097.14,-0.031088496411575448
2093.14,-0.027047397618037046
2089.14,-0.0254099899096444
2085.14,-0.01836903299817166
2081.15,-0.00773646768641011
2077.15,0.0044369966988317
2073.15,0.019856477693171504
2069.15,0.030009179402328293
2065.16,0.02358479352583539
2061.16,0.00556092952814571
2057.16,-0.0018094495497530281
2053.16,0.001244214948494935
2049.16,0.006834951208232549
2045.17,0.033049970058297004
2041.17,0.07724938640134857
2037.17,0.08607114923919479
2033.17,0.07452558806675522
2029.18,0.04770013984488828
2025.18,0.008756109474154398
2021.18,0.0032557010085650616
2017.18,0.008440830768375786
2013.19,-0.0018425047972136822
2009.19,0.006186605508769559
2005.19,0.02502812833445536
2001.19,0.04084207918706001
1997.2,0.048366540348763004
1993.2,0.03800644986926403
1989.2,0.013851375884195938
1985.2,-0.023604081633221502
1981.21,-0.06324850520679627
1977.21,-0.05465553996160796
1973.21,-0.033628260571559196
1969.21,-0.016045442987206934
1965.21,-0.00591641931710447
1961.22,0.00597170220241235
1957.22,0.009717755812509362
1953.22,-0.007980509855905402
1949.22,-0.03973248491654084
1945.23,-0.05458263274677415
1941.23,-0.0432815069874718
1937.23,-0.03540692987339358
1933.23,-0.04397388578654161
1929.24,-0.04726034551482001
1925.24,-0.029882056448366535
1921.24,-0.010481534703680056
1917.24,-0.0033024961430153186
1913.25,-0.004023046072298206
1909.25,-0.005985302093930589
1905.25,-0.010945040259059083
1901.25,-0.019520831496894327
1897.26,-0.02335553471834334
1893.26,-0.017670844818647814
1889.26,-0.010375366370333898
1885.26,-0.006846548653189271
1881.26,-0.00516253194978715
1877.27,-0.004873888618113849
1873.27,-0.009179011754694042
1869.27,-0.01614293745132507
1865.27,-0.0174784694987337
1861.28,-0.012074137118363129
1857.28,-0.009408140389101542
1853.28,-0.013459234447892328
1849.28,-0.01786183747900455
1845.29,-0.016686315455805286
1841.29,-0.014811221999541933
1837.29,-0.01705728218700582
1833.29,-0.019673410300401036
1829.3,-0.01766177894847807
1825.3,-0.01380559445297024
1821.3,-0.012590029414889826
1817.3,-0.013032651595694042
1813.31,-0.012993812474075201
1809.31,-0.013879051854321688
1805.31,-0.0172483276036189
1801.31,-0.021059824206047306
1797.32,-0.021947543798420416
1793.32,-0.020115246390387153
1789.32,-0.01803570144017648
1785.32,-0.016890850533013757
1781.32,-0.01745457439575947
1777.33,-0.020718261234204643
1773.33,-0.025017505043386505
1769.33,-0.025738978872452484
1765.33,-0.022548847154521802
1761.34,-0.021193841216801096
1757.34,-0.024938277421607116
1753.34,-0.030276577242121454
1749.34,-0.032110839411152906
1745.35,-0.03219283763706244
1741.35,-0.03441323669101132
1737.35,-0.03616347506521047
1733.35,-0.032901476682103234
1729.36,-0.028619494300105276
1725.36,-0.029294159958371625
1721.36,-0.03375961798196376
1717.36,-0.03573444810547584
1713.37,-0.034446477444030565
1709.37,-0.035647332385732325
1705.37,-0.04027270585545921
1701.37,-0.04136236130744199
1697.37,-0.03509223998540993
1693.38,-0.027691709318818643
1689.38,-0.022847512673349182
1685.38,-0.017759809512471872
1681.38,-0.010465162572128657
1677.39,-0.0029872876038408297
1673.39,0.0037074624626846145
1669.39,0.010603145530292922
1665.39,0.01626387410855671
1661.4,0.017235955128755233
1657.4,0.012344743668759046
1653.4,0.005611645949371254
1649.4,0.0032582002354213727
1645.41,0.004197104125652364
1641.41,0.003447086809632821
1637.41,-9.878175100050401e-05
1633.41,-0.004357248995931012
1629.42,-0.007974682335412875
1625.42,-0.01116316501315543
1621.42,-0.01335793493542986
1617.42,-0.01323221943569955
1613.42,-0.010944508856050965
1609.43,-0.007895673817195508
1605.43,-0.005170370109083954
1601.43,-0.003356781694200013
1597.43,-0.0022955491864074216
1593.44,-0.0009944015902347662
1589.44,0.000766889096607444
1585.44,0.0015090905869778806
1581.44,0.0004926142052988636
1577.45,-6.004940698513955e-05
1573.45,0.0020132599372273685
1569.45,0.004350562159620437
1565.45,0.003505709754674645
1561.46,0.0012308398253381425
1557.46,0.003111824770010166
1553.46,0.0073551380390100285
1549.46,0.006436569117115376
1545.47,-0.0014071166103840488
1541.47,-0.008934579073100468
1537.47,-0.00871730968121559
1533.47,-0.006847980022663472
1529.47,-0.010807696147850751
1525.48,-0.019034852046302744
1521.48,-0.024697690170289596
1517.48,-0.026676313584351338
1513.48,-0.02897111760762225
1509.49,-0.02988984161397063
1505.49,-0.02490216319951067
1501.49,-0.01712767411520235
1497.49,-0.012058949101549692
1493.5,-0.008743056747602201
1489.5,-0.003290248213162969
1485.5,0.003404883254050424
1481.5,0.007467293360391321
1477.51,0.008644291439684093
1473.51,0.010146345235426672
1469.51,0.012485684440779042
1465.51,0.011930085639055732
1461.52,0.007604049251632536
1457.52,0.005148030639079815
1453.52,0.00918775372111725
1449.52,0.014797313655191956
1445.53,0.015871594082411115
1441.53,0.01214181556001978
1437.53,0.007667296721816173
1433.53,0.005139748390999614
1429.53,0.0030207094002746224
1425.54,-1.3352145259201698e-05
1421.54,-0.002184845778041157
1417.54,-0.0016082361486364424
1413.54,0.0003988250585372985
1409.55,0.0014368180372673275
1405.55,0.0008562429165484345
1401.55,8.712978364946306e-05
1397.55,0.001467274056391528
1393.56,0.005899746603388226
1389.56,0.011170362610259145
1385.56,0.013815322841310249
1381.56,0.012535034517984232
1377.57,0.009173189974751896
1373.57,0.006643049979802376
1369.57,0.006057213996792991
1365.57,0.006648602212238886
1361.58,0.007654792132658728
1357.58,0.008584656941440266
1353.58,0.008365165839858933
1349.58,0.006037809826663118
1345.58,0.00243584306240939
1341.59,0.00020523818293801885
1337.59,0.0010235365381596022
1333.59,0.0035029906772049008
1329.59,0.005154102538304266
1325.6,0.005151883388015383
1321.6,0.004584312528197177
1317.6,0.004854826403916834
1313.6,0.006419034231492784
1309.61,0.008885180346353553
1305.61,0.011743253894094075
1301.61,0.01470438592141442
1297.61,0.017542171141358354
1293.62,0.01999318163931625
1289.62,0.021987214212165637
1285.62,0.02380312260495846
1281.62,0.02580775279120854
1277.63,0.028034755550865327
1273.63,0.030098916091931438
1269.63,0.03153282543141397
1265.63,0.03218798740627087
1261.63,0.03240536223423363
1257.64,0.032783207143093095
1253.64,0.033809983943509064
1249.64,0.03573849141229822
1245.64,0.038466196972265373
1241.65,0.04132660621685706
1237.65,0.043294726512529136
1233.65,0.04395204519654296
1229.65,0.044315462012008866
1225.66,0.04598232597454588
1221.66,0.048548394359098246
1217.66,0.04773245759225564
1213.66,0.044855698745953854
1209.67,0.04181605708010894
1205.67,0.037456513407628456
1201.67,0.033562384921745375
1197.67,0.029788614785775505
1193.68,0.02552860933249812
1189.68,0.021528320377373802
1185.68,0.019160409227788992
1181.68,0.01888390053492417
1177.68,0.020034282247554498
1173.69,0.021814688267106197
1169.69,0.023736254785672296
1165.69,0.025173564418306607
1161.69,0.025413070928254074
1157.7,0.024429698872561675
1153.7,0.022993568161102
1149.7,0.02170581020614979
1145.7,0.020286292190832104
1141.71,0.01808809670934898
1137.71,0.015085643196186903
1133.71,0.01211940893081146
1129.71,0.010263961004605218
1125.72,0.010067267197092354
1121.72,0.011254645628871091
1117.72,0.012955705104814027
1113.72,0.01436377767123068
1109.73,0.015413646784325618
1105.73,0.016791403012699713
1101.73,0.019175000404979065
1097.73,0.022374226251151763
1093.74,0.02516106884254808
1089.74,0.02608907371073152
1085.74,0.024935769888053915
1081.74,0.023371547457827574
1077.74,0.023546801351287207
1073.75,0.02583583233186179
1069.75,0.0283013988524707
1065.75,0.028753761195974663
1061.75,0.027039126478943458
1057.76,0.0247293225939576
1053.76,0.02324048159517992
1049.76,0.022934265992900618
1045.76,0.023510679393448405
1041.77,0.0243810049980426
1037.77,0.0247284454224486
1033.77,0.02405871023100011
1029.77,0.02280855582333175
1025.78,0.021786224522563284
1021.78,0.02108201572018659
1017.78,0.020193925655223637
1013.78,0.019090474549694026
1009.79,0.01822396210987387
1005.79,0.017441406537103393
1001.79,0.015902349779351187
997.79,0.013410190418313653
993.79,0.011001660195297183
989.8,0.009734721532780738
985.8,0.009431495664140034
981.8,0.009138680778812688
977.8,0.008338513994622914
973.81,0.007170173723661256
969.81,0.005839350094010737
965.81,0.004244737478730578
961.81,0.0019238656710082562
957.82,-0.001777911011579543
953.82,-0.006808873177339969
949.82,-0.011337340543358058
945.82,-0.012525459492298423
941.83,-0.009356828460426105
937.83,-0.003979588178868981
933.83,0.0005860042166248997
929.83,0.0031485055395875303
925.84,0.004173628596790845
921.84,0.004071262750736639
917.84,0.0029987323631956962
913.84,0.0017268429501231704
909.84,0.0012727288158509414
905.85,0.0017505185828383153
901.85,0.002605052179878697
897.85,0.0036468543363158464
893.85,0.00469780759451697
889.86,0.0048549631217950865
885.86,0.003378685818692991
881.86,0.0011001614843252662
877.86,-0.0003664542245784049
873.87,-0.0007357832992405371
869.87,-0.0010242944593021937
865.87,-0.0016436947407894135
861.87,-0.001818555212641449
857.88,-0.0007654496593329993
853.88,0.0018934303159196218
849.88,0.006193115060530146
845.88,0.010779190568810965
841.89,0.013004288847693803
837.89,0.011845673527709818
833.89,0.009279507257969277
829.89,0.007168048022866701
825.89,0.004631080284846795
821.9,0.00047595927767082186
817.9,-0.0027924596371000573
813.9,-0.001011763445840641
809.9,0.004632368890131092
805.91,0.008244629954325011
801.91,0.006164677015304237
797.91,0.0005564428371068464
793.91,-0.003586153994290131
789.92,-0.003957006629435933
785.92,-0.0017965283019722444
781.92,-0.0004581725806929726
777.92,0.00045070670277591596
773.93,-0.011676694579017988
769.93,-0.008954137320637656
765.93,0.0045542447090449745
761.93,-0.026081437011259423
757.94,-0.05851626990671188
753.94,0.06289559240535558
749.94,0.05710077439969863
745.94,0.029063477251011993
741.95,0.07031801574743524
737.95,0.05526030689151562
733.95,-0.041790720876823007
729.95,-0.12755439641853938
725.95,-0.1720943374285145
721.96,-0.008014496781949987
717.96,0.03816283762463746
713.96,0.02571443047112898
709.96,0.06515444713440816
705.97,0.0822240426025091
701.97,-0.08521752168639907
697.97,-0.21626936495820728
693.97,-0.3431163575241455
689.98,-0.19018463037376981
685.98,-0.5822145748130635
681.98,-0.3775548090311025
677.98,-0.18880067901543857
673.99,0.23293549252768875
669.99,0.16458147155095565
665.99,0.037356310928440536
661.99,0.18867218700687866
658.0,0.16284371278298337
654.0,0.14878029389281497
650.0,-0.02221390989989127
