wavenumber,transmittance
4000.0,-0.007923045626932511
3996.0,-0.008435615570932213
3992.0,-0.009059580978865025
3988.01,-0.01089814892772904
3984.01,-0.01239758140813967
3980.01,-0.011578104239918126
3976.01,-0.009184510477612703
3972.02,-0.007079862457483122
3968.02,-0.005357186061894019
3964.02,-0.0034434637523301833
3960.02,-0.0024749739461895556
3956.03,-0.003924762715025259
3952.03,-0.006732677997320878
3948.03,-0.008353231197332677
3944.03,-0.008611938212839156
3940.04,-0.009310919909629988
3936.04,-0.010898179299982632
3932.04,-0.012462416145177985
3928.04,-0.014015077896817626
3924.05,-0.015829961441707046
3920.05,-0.016512430223811134
3916.05,-0.015434466488892335
3912.05,-0.01570072567652148
3908.05,-0.020473971767684528
3904.06,-0.027265480853417078
3900.06,-0.029071369490044723
3896.06,-0.02499431235790841
3892.06,-0.021823191313550292
3888.07,-0.023369934952448195
3884.07,-0.026538982728148083
3880.07,-0.027674301723925022
3876.07,-0.028007234775705936
3872.08,-0.029418437088462774
3868.08,-0.029981808661266044
3864.08,-0.027550087618674106
3860.08,-0.02403127829552314
3856.09,-0.02258198209103745
3852.09,-0.023847846627380192
3848.09,-0.02655301217062123
3844.09,-0.029880158934659527
3840.1,-0.03255122795326367
3836.1,-0.03224439915620321
3832.1,-0.029962858672290635
3828.1,-0.029974062339671995
3824.11,-0.032484569463027003
3820.11,-0.03225318947478094
3816.11,-0.026519785268521577
3812.11,-0.021027832603946833
3808.11,-0.02050295907315805
3804.12,-0.02165995086396922
3800.12,-0.018365160603052065
3796.12,-0.01201805358345511
3792.12,-0.009108060683445388
3788.13,-0.01100724038037789
3784.13,-0.014114836027467876
3780.13,-0.015437040394440993
3776.13,-0.015793089750138958
3772.14,-0.01694361756464096
3768.14,-0.018812939545277227
3764.14,-0.02118571218909205
3760.14,-0.025415323569191958
3756.15,-0.032678344465904785
3752.15,-0.041814002937572724
3748.15,-0.04948434488734051
3744.15,-0.05329609661216142
3740.16,-0.05323203688230067
3736.16,-0.049576228359895336
3732.16,-0.043412637607607704
3728.16,-0.037353411224735886
3724.16,-0.03349636536461566
3720.17,-0.0322119972668994
3716.17,-0.03241942731921153
3712.17,-0.03135461990566156
3708.17,-0.026100769540368704
3704.18,-0.018462338050353924
3700.18,-0.014609690752269006
3696.18,-0.01802868500753374
3692.18,-0.024773394062838818
3688.19,-0.026747661835697475
3684.19,-0.022812524085820532
3680.19,-0.019830682318900648
3676.19,-0.02094632610775507
3672.2,-0.02035467210121858
3668.2,-0.014064897272198753
3664.2,-0.009387529950721363
3660.2,-0.014252672678615902
3656.21,-0.0284247534162406
3652.21,-0.041306351807684154
3648.21,-0.03964280116528143
3644.21,-0.02751371789793294
3640.21,-0.019024123207850883
3636.22,-0.019420824204823425
3632.22,-0.0252460404257901
3628.22,-0.03010092786868978
3624.22,-0.03102279372975192
3620.23,-0.030083410293213562
3616.23,-0.02900254684155701
3612.23,-0.02657490611318035
3608.23,-0.022069628831925925
3604.24,-0.01806438053729674
3600.24,-0.017680186143469022
3596.24,-0.02113273639960106
3592.24,-0.025378483272103507
3588.25,-0.026291839620443437
3584.25,-0.022819490269833764
3580.25,-0.01818675263962659
3576.25,-0.016130861118883653
3572.26,-0.017638307239423345
3568.26,-0.020472975899246508
3564.26,-0.02135570060155841
3560.26,-0.01994996433767496
3556.26,-0.01859053938558833
3552.27,-0.018189886493781428
3548.27,-0.017236822557887735
3544.27,-0.014745974929522291
3540.27,-0.012499789071739351
3536.28,-0.012501690492999692
3532.28,-0.013777939534875962
3528.28,-0.01326400273960516
3524.28,-0.009293280466729626
3520.29,-0.003926322661363623
3516.29,-0.0012019157222474888
3512.29,-0.003127557616375138
3508.29,-0.007508010014459198
3504.3,-0.00947682670759311
3500.3,-0.006326947140233835
3496.3,-0.0009281056663612269
3492.3,0.0013507520712145848
3488.31,-0.0014438882155358053
3484.31,-0.00646782644894511
3480.31,-0.009779629650970397
3476.31,-0.010246238980558061
3472.32,-0.009437088432216075
3468.32,-0.009025789601560566
3464.32,-0.00974483448282068
3460.32,-0.011525467209817342
3456.32,-0.013463395772554156
3452.33,-0.014437332113212954
3448.33,-0.014262412710183914
3444.33,-0.013571575865119923
3440.33,-0.012112388400052156
3436.34,-0.009094229926234227
3432.34,-0.005371861198748986
3428.34,-0.003438732807040554
3424.34,-0.004474722486573206
3420.35,-0.006648532968812523
3416.35,-0.007309462154975307
3412.35,-0.005785451142682034
3408.35,-0.0032552565283464913
3404.36,-0.0012390277528386232
3400.36,-0.0011137991745211549
3396.36,-0.003636051002832449
3392.36,-0.007590253940814732
3388.37,-0.010072940461240222
3384.37,-0.009513926185878346
3380.37,-0.007498452917941349
3376.37,-0.006452506554655563
3372.37,-0.006933931373796948
3368.38,-0.00829309724722826
3364.38,-0.01011956315434578
3360.38,-0.011406503671568091
3356.38,-0.010284330175750155
3352.39,-0.006616445881577192
3348.39,-0.003430132087104104
3344.39,-0.003374675988097901
3340.39,-0.005236246732948957
3336.4,-0.0060133985333722505
3332.4,-0.005231888975863871
3328.4,-0.004973449394625427
3324.4,-0.006337936737023403
3320.41,-0.008460582521244599
3316.41,-0.010542990811294964
3312.41,-0.012322006014759974
3308.41,-0.012650592169834638
3304.42,-0.010531596307754257
3300.42,-0.007797797350123861
3296.42,-0.007694528559561747
3292.42,-0.010427339603721329
3288.42,-0.012723465388270832
3284.43,-0.012627027589204379
3280.43,-0.012233571418607607
3276.43,-0.013889393550588689
3272.43,-0.016504126562106283
3268.44,-0.017694340621534858
3264.44,-0.017481190278866767
3260.44,-0.01743489846775469
3256.44,-0.017571729161086357
3252.45,-0.016663063549928463
3248.45,-0.014932708519325492
3244.45,-0.013986470287766204
3240.45,-0.01421165030237755
3236.46,-0.014212875744813419
3232.46,-0.012983508064641124
3228.46,-0.01125455148479938
3224.46,-0.010360903468822617
3220.47,-0.010661069811376815
3216.47,-0.011471339097145962
3212.47,-0.012060054141444454
3208.47,-0.012419698408930079
3204.47,-0.013053556321646662
3200.48,-0.01394453392795782
3196.48,-0.014057920180291963
3192.48,-0.012543828847178543
3188.48,-0.010350689286704783
3184.49,-0.009541817786790028
3180.49,-0.01073307891331779
3176.49,-0.012281045948125752
3172.49,-0.012510994432869186
3168.5,-0.011720084609753038
3164.5,-0.011067140956360116
3160.5,-0.010610689132535269
3156.5,-0.009723196246880178
3152.51,-0.00877067458837326
3148.51,-0.00882606189392279
3144.51,-0.009983044683937566
3140.51,-0.01121675201732961
3136.52,-0.012022372560272675
3132.52,-0.013035893747685635
3128.52,-0.014520763553623705
3124.52,-0.015317254569865126
3120.53,-0.014222791438933853
3116.53,-0.011898343238500237
3112.53,-0.01049067127398499
3108.53,-0.011264388417071653
3104.53,-0.01314889913454635
3100.54,-0.0140600571040035
3096.54,-0.013252775646159235
3092.54,-0.011757406776577687
3088.54,-0.010623140739033105
3084.55,-0.009727564278514783
3080.55,-0.008560640886271079
3076.55,-0.007431564241010224
3072.55,-0.00706201185629389
3068.56,-0.007353808915469676
3064.56,-0.007512737550408082
3060.56,-0.0073341616802804835
3056.56,-0.007546542254173318
3052.57,-0.00876861413232223
3048.57,-0.010815454659369471
3044.57,-0.013124098553700735
3040.57,-0.015206148114740949
3036.58,-0.016385470487296397
3032.58,-0.01577962729961578
3028.58,-0.01325470193467436
3024.58,-0.010089583771932684
3020.58,-0.008097935128222433
3016.59,-0.008119256323937327
3012.59,-0.00945696683274213
3008.59,-0.010502754374847934
3004.59,-0.00990067433037023
3000.6,-0.0075782625738219575
2996.6,-0.004694951596088345
2992.6,-0.002332733712325126
2988.6,-0.000465580162592745
2984.61,0.0013493986860423496
2980.61,0.0027110920683202575
2976.61,0.0026447299788136466
2972.61,0.0009203200416655483
2968.62,-0.0016025358490172406
2964.62,-0.0039063531627352155
2960.62,-0.005506547411623944
2956.62,-0.006199273847277569
2952.63,-0.005880838717086702
2948.63,-0.004909467455021084
2944.63,-0.00392057088968964
2940.63,-0.00301700786869857
2936.63,-0.001825258832319581
2932.64,-0.0005467949805837771
2928.64,-5.6581456853319056e-05
2924.64,-0.0005901344383681846
2920.64,-0.0011473357997789195
2916.65,-0.000863865734589523
2912.65,-0.0002206199532088296
2908.65,-6.047711566596961e-05
2904.65,-0.00047705468472835494
2900.66,-0.0011628150140000314
2896.66,-0.001905209514749661
2892.66,-0.0024398817485397246
2888.66,-0.002412779158282717
2884.67,-0.0019024093686275528
2880.67,-0.0015549580755910113
2876.67,-0.0018244609950508021
2872.67,-0.0025020819318699906
2868.68,-0.003222282056614359
2864.68,-0.003892447717136335
2860.68,-0.00426730515209605
2856.68,-0.0037471744314760917
2852.68,-0.0022085400951468125
2848.69,-0.0005866610586660569
2844.69,0.00012507002049403498
2840.69,-2.7052646069052055e-05
2836.69,-0.0005150356675070415
2832.7,-0.001123384745665576
2828.7,-0.0016702358573616512
2824.7,-0.0017490822897013696
2820.7,-0.0014081517510652272
2816.71,-0.0013878103034884511
2812.71,-0.0020117569389056476
2808.71,-0.0024471091631963187
2804.71,-0.0019619816846890084
2800.72,-0.0013372412905934827
2796.72,-0.0018665757805489663
2792.72,-0.003403733844023527
2788.72,-0.004576645061723417
2784.73,-0.004825552507996251
2780.73,-0.0049417466718260925
2776.73,-0.005388257344554062
2772.73,-0.005409820214770575
2768.74,-0.004409633199600893
2764.74,-0.0031939080786166033
2760.74,-0.003035721778342656
2756.74,-0.004065240318213526
2752.74,-0.005254625677757416
2748.75,-0.005741342225630691
2744.75,-0.005562742648872992
2740.75,-0.0052467163318261675
2736.75,-0.005181586699719582
2732.76,-0.005407348241850149
2728.76,-0.005730964314192545
2724.76,-0.005945925577360003
2720.76,-0.006008772907528062
2716.77,-0.0059627880885146835
2712.77,-0.005774286805014607
2708.77,-0.005437767910848382
2704.77,-0.0052055084847528015
2700.78,-0.005412665502324362
2696.78,-0.005976927385305741
2692.78,-0.006376691074934085
2688.78,-0.006293426861550561
2684.79,-0.006035908732228425
2680.79,-0.006086029182635916
2676.79,-0.006394019252299668
2672.79,-0.006406068118268295
2668.79,-0.005762075325807402
2664.8,-0.004766581287919609
2660.8,-0.004092291569380139
2656.8,-0.004108973360015462
2652.8,-0.0045399185110115885
2648.81,-0.004744798850186294
2644.81,-0.0044398464120450854
2640.81,-0.004073623031347871
2636.81,-0.00431117659002633
2632.82,-0.005145570296941493
2628.82,-0.005684666158896298
2624.82,-0.004943419126139617
2620.82,-0.0028109181177766113
2616.83,-0.00021982969670490335
2612.83,0.001427587574333443
2608.83,0.0012409825969176263
2604.83,-0.0007390100410394323
2600.84,-0.0041503095833071504
2596.84,-0.008628796512157436
2592.84,-0.012977216814117109
2588.84,-0.01481978949140337
2584.84,-0.012684353242232198
2580.85,-0.008604477546654124
2576.85,-0.00632600672120542
2572.85,-0.006927187173107994
2568.85,-0.007908298305558403
2564.86,-0.007022539131467662
2560.86,-0.0056977835806734335
2556.86,-0.006451024031619593
2552.86,-0.009069344952833774
2548.87,-0.011097748101837742
2544.87,-0.010512700467748076
2540.87,-0.007142026745160426
2536.87,-0.002117748979422316
2532.88,0.0020437366856034967
2528.88,0.0023573664371587567
2524.88,-0.00212935600319276
2520.88,-0.00873288602484783
2516.89,-0.013482669087383105
2512.89,-0.015307311216041647
2508.89,-0.015578444108142154
2504.89,-0.014648766137513036
2500.89,-0.012305680269556364
2496.9,-0.010265916240562044
2492.9,-0.010913797873391473
2488.9,-0.013943496062669663
2484.9,-0.016274851659318752
2480.91,-0.015924698054840203
2476.91,-0.013446751748791674
2472.91,-0.009827696953129659
2468.91,-0.005559054545478387
2464.92,-0.0015124607345559518
2460.92,0.0010658764790535888
2456.92,0.0016653887047440655
2452.92,0.0012293389282249916
2448.93,0.0007941799231931251
2444.93,8.228100563711753e-05
2440.93,-0.0014806836776960694
2436.93,-0.0037473951614282706
2432.94,-0.0059613079946600825
2428.94,-0.0074975704369208114
2424.94,-0.008026291340175632
2420.94,-0.007562021780926659
2416.95,-0.006608317769861809
2412.95,-0.0058930449369272875
2408.95,-0.0055068544693226106
2404.95,-0.00477084536256241
2400.95,-0.0035440454279881996
2396.96,-0.0027082008178137065
2392.96,-0.0032322865823867404
2388.96,-0.004733308316691629
2384.96,-0.005401091596260852
2380.97,-0.003763616413801193
2376.97,-0.000239960580949437
2372.97,0.00260634010331706
2368.97,0.0024754472891578456
2364.98,0.00038770464730253536
2360.98,-0.0004126570872076663
2356.98,0.0009293321766855405
2352.98,0.0022736027576342097
2348.99,0.002284628410345086
2344.99,0.0018499129240630977
2340.99,0.0027203887341804216
2336.99,0.005347276998494662
2333.0,0.00825974572491525
2329.0,0.009929324681162373
2325.0,0.009751765776663573
2321.0,0.007750713824063125
2317.0,0.004823328825102019
2313.01,0.003003198134774664
2309.01,0.0042547581763780025
2305.01,0.0087247540366964
2301.01,0.015274421891766012
2297.02,0.022342775549420105
2293.02,0.027741543241919315
2289.02,0.030529186582467203
2285.02,0.03246643109483236
2281.03,0.037622407433862956
2277.03,0.049286731184947155
2273.03,0.06358006458223613
2269.03,0.07240769469665118
2265.04,0.06881969564247752
2261.04,0.05399900739451946
2257.04,0.036398169523673196
2253.04,0.020531104995978988
2249.05,0.015195635236819913
2245.05,0.023482256522725203
2241.05,0.0358400832541384
2237.05,0.046226082529680725
2233.05,0.05180548613644726
2229.06,0.05124355092190899
2225.06,0.04280798563335046
2221.06,0.028925720901885298
2217.06,0.01650163815176401
2213.07,0.00974613691518689
2209.07,0.011969828394597232
2205.07,0.019659360077313486
2201.07,0.027195083430494104
2197.08,0.029228359574633597
2193.08,0.026260498869494497
2189.08,0.013284131570977686
2185.08,-0.013238044171520398
2181.09,-0.038365039030076674
2177.09,-0.042889500030476424
2173.09,-0.017271272029023028
2169.09,0.015480330754325526
2165.1,0.030742367905430737
2161.1,0.04240720721207547
2157.1,0.06700997302824985
2153.1,0.08807152857903815
2149.11,0.07578674556862439
2145.11,0.044920732718134765
2141.11,0.023086847110982543
2137.11,0.011975270035007212
2133.11,0.004758913169822852
2129.12,0.001594074265706698
2125.12,0.0031659759421399924
2121.12,0.00642572014402198
2117.12,0.003711573423009323
2113.13,-0.009328813177910945
2109.13,-0.028005996174857085
2105.13,-0.039699223832867406
2101.13,-0.03647491347763568
2097.14,-0.0291325671965189
2093.14,-0.028169606160632917
2089.14,-0.030512524994815216
2085.14,-0.027036590575189038
2081.15,-0.016116738825166836
2077.15,0.0006286240727469607
2073.15,0.0224517931811689
2069.15,0.03576717419145333
2065.16,0.028674402540333547
2061.16,0.010711829918142502
2057.16,0.005095456048727864
2053.16,0.011119702827129315
2049.16,0.018707967520804333
2045.17,0.04230326400579515
2041.17,0.07298991008294155
2037.17,0.07471517481642012
2033.17,0.06269264267694576
2029.18,0.03207908641276443
2025.18,-0.008211638972945606
2021.18,-0.010496049111262173
2017.18,-0.001153685479754911
2013.19,-0.007316849233894276
2009.19,0.006067707185148673
2005.19,0.028261926339832235
2001.19,0.04406805554259784
1997.2,0.05429352977097433
1993.2,0.0424060349599953
1989.2,0.011420364191773013
1985.2,-0.0300366464501544
1981.21,-0.06597358330616955
1977.21,-0.048689990657878095
1973.21,-0.02456506446626607
1969.21,-0.009179099234845391
1965.21,-0.002244992671971799
1961.22,0.006207858552854939
1957.22,0.010446354429312923
1953.22,-0.00697158968463897
1949.22,-0.03799898597925215
1945.23,-0.05176770849160736
1941.23,-0.03989802625979326
1937.23,-0.03217036079345576
1933.23,-0.04099693465166528
1929.24,-0.04575061602397298
1925.24,-0.030438648576593126
1921.24,-0.011283260462854373
1917.24,-0.002029571452138464
1913.25,-0.00048370056400363383
1909.25,-0.0022322600379914665
1905.25,-0.007954711268019847
1901.25,-0.016967279149717802
1897.26,-0.021460958755350576
1893.26,-0.016942902907037514
1889.26,-0.01014957181363766
1885.26,-0.005959711453408457
1881.26,-0.003503459055674003
1877.27,-0.0033322913939584425
1873.27,-0.008140764498042645
1869.27,-0.015392610732150378
1865.27,-0.017103433051055227
1861.28,-0.012320911098124075
1857.28,-0.009984228182772368
1853.28,-0.013897798838152996
1849.28,-0.01816541104626953
1845.29,-0.01707941450306484
1841.29,-0.015119460156603304
1837.29,-0.017096642637724604
1833.29,-0.019827071128837567
1829.3,-0.018409175840104767
1825.3,-0.01486407485012851
1821.3,-0.013347743490393988
1817.3,-0.013420219052784753
1813.31,-0.013351661732297687
1809.31,-0.014343739061773579
1805.31,-0.017799607948829538
1801.31,-0.0218336894620576
1797.32,-0.023001322755108345
1793.32,-0.021067034739663378
1789.32,-0.018484617636400563
1785.32,-0.01701346898549464
1781.32,-0.017740192469694445
1777.33,-0.021266180181857733
1773.33,-0.025557827088048206
1769.33,-0.026226504777538597
1765.33,-0.02319528984253575
1761.34,-0.021969968568421108
1757.34,-0.025634222192330382
1753.34,-0.030963986516794963
1749.34,-0.03311797113727553
1745.35,-0.03356089736993357
1741.35,-0.03592848114324359
1737.35,-0.03784735036484141
1733.35,-0.03496547442106027
1729.36,-0.030974766026082023
1725.36,-0.03170687544945502
1721.36,-0.036295941570507265
1717.36,-0.03865643022645659
1713.37,-0.03770308151170432
1709.37,-0.03911198410696793
1705.37,-0.04446640285540219
1701.37,-0.04739475845430675
1697.37,-0.04355683977055981
1693.38,-0.038696553911628594
1689.38,-0.03715258045855403
1685.38,-0.03647519934366818
1681.38,-0.0337573480867258
1677.39,-0.030292528490028624
1673.39,-0.027386600344297424
1669.39,-0.023939058752850417
1665.39,-0.020678471352455353
1661.4,-0.021193113807118344
1657.4,-0.027164266355604823
1653.4,-0.033879896634223
1649.4,-0.03392831171735974
1645.41,-0.02902389737435341
1641.41,-0.025201181885828903
1637.41,-0.02379967786939189
1633.41,-0.023256609693992503
1629.42,-0.023102021876791147
1625.42,-0.023731200336886547
1621.42,-0.024076606630830638
1617.42,-0.022373668375642957
1613.42,-0.018815165549060483
1609.43,-0.015019437715198966
1605.43,-0.012036278898394901
1601.43,-0.010213587602207658
1597.43,-0.009374815751417145
1593.44,-0.008844108834344042
1589.44,-0.008548318727634
1585.44,-0.009824118251782595
1581.44,-0.013662678837582182
1577.45,-0.018455099889119433
1573.45,-0.02168173818900373
1569.45,-0.02437076669578651
1565.45,-0.0294438767278345
1561.46,-0.03528240311567372
1557.46,-0.03560030367715345
1553.46,-0.03162851233653696
1549.46,-0.031620373072144076
1545.47,-0.037652985677071975
1541.47,-0.042109965235471496
1537.47,-0.03833580292827151
1533.47,-0.03372208856507968
1529.47,-0.03555265821154608
1525.48,-0.041587625977568626
1521.48,-0.04506771873850143
1517.48,-0.04531655373697496
1513.48,-0.04605458714421239
1509.49,-0.04509448485464979
1505.49,-0.03812989689768688
1501.49,-0.02880488164298263
1497.49,-0.022684931466489623
1493.5,-0.018981351540604003
1489.5,-0.01432078776474701
1485.5,-0.00970362840084061
1481.5,-0.008588309792555385
1477.51,-0.010632082909459183
1473.51,-0.011425990792911893
1469.51,-0.009432515067265376
1465.51,-0.009038436519886915
1461.52,-0.012343288958832632
1457.52,-0.01412996275532201
1453.52,-0.009398874847074162
1449.52,-0.0027927609753035446
1445.53,-0.0005437298458828982
1441.53,-0.002990878667203177
1437.53,-0.005910392956362108
1433.53,-0.006513836522319273
1429.53,-0.006600062303558411
1425.54,-0.00791991406711736
1421.54,-0.008844637207920045
1417.54,-0.007209929256371664
1413.54,-0.004351147989642035
1409.55,-0.003360888919440936
1405.55,-0.005382573637319105
1401.55,-0.008349897357233602
1397.55,-0.008593049240019919
1393.56,-0.004671700451577707
1389.56,0.00066235791539003
1385.56,0.0037498520885138054
1381.56,0.0039085626110689844
1377.57,0.00303420446187605
1373.57,0.0025573832565322988
1369.57,0.0019596946314812333
1365.57,0.000771231273920911
1361.58,0.0002810974484581119
1357.58,0.0015037558892948798
1353.58,0.0027978619014928305
1349.58,0.001724916299500858
1345.58,-0.001576515296991151
1341.59,-0.004101245633259518
1337.59,-0.003598801809499841
1333.59,-0.0013912422675206697
1329.59,-0.00015876007679193477
1325.6,-0.0006998178586114061
1321.6,-0.0017763513473835757
1317.6,-0.0020115676886220887
1313.6,-0.0011265095476395322
1309.61,0.00033178238005139235
1305.61,0.0017012057811483274
1301.61,0.0025782668113771175
1297.61,0.002941202334491702
1293.62,0.0030907060727350492
1289.62,0.0033538526125530543
1285.62,0.0038649415263775667
1281.62,0.004598846000142459
1277.63,0.005305745476339864
1273.63,0.0053992332914778104
1269.63,0.0043521356023430435
1265.63,0.0024668325768730723
1261.63,0.0008668256341949898
1257.64,0.0002630664082858211
1253.64,0.00038916884178491484
1249.64,0.0011209746585403649
1245.64,0.003254188171419134
1241.65,0.007404747277854132
1237.65,0.012531288285873826
1233.65,0.01649392531305574
1229.65,0.018342024241920246
1225.66,0.019027363595375657
1221.66,0.01902735578590309
1217.66,0.0165064188127082
1213.66,0.014785640701824976
1209.67,0.014522614727698835
1205.67,0.01327498964445084
1201.67,0.012286544066043487
1197.67,0.011173024933082129
1193.68,0.009253226172481296
1189.68,0.007023470955688907
1185.68,0.005664688051789053
1181.68,0.005748032817707846
1177.68,0.006951982845623664
1173.69,0.008754269817477268
1169.69,0.010858095068893778
1165.69,0.013039310247617598
1161.69,0.015042775426212296
1157.7,0.016614001980248698
1153.7,0.017378860432244167
1149.7,0.01682707100020102
1145.7,0.014689100109617909
1141.71,0.011270305983110851
1137.71,0.0073567435103759245
1133.71,0.003982899946503131
1129.71,0.0021684895137115134
1125.72,0.002426484900059811
1121.72,0.004294598279034948
1117.72,0.006554837510032413
1113.72,0.008248623872029522
1109.73,0.00943727327326236
1105.73,0.010878614578907285
1101.73,0.013222503565399012
1097.73,0.01647629044729552
1093.74,0.019717874416491078
1089.74,0.021272736556632414
1085.74,0.020100862311943395
1081.74,0.017414363295370643
1077.74,0.015852698919501897
1073.75,0.01663109313803054
1069.75,0.018249269665982684
1065.75,0.0185239812712614
1061.75,0.017231054370470053
1057.76,0.015743578391088746
1053.76,0.014867403653015445
1049.76,0.014229589077460227
1045.76,0.013418688913316705
1041.77,0.012597596336258324
1037.77,0.01195401687530498
1033.77,0.011406895083045335
1029.77,0.010958749340559314
1025.78,0.010647417962764163
1021.78,0.01017652710979864
1017.78,0.009370695698526423
1013.78,0.008867826608747218
1009.79,0.009400081709256134
1005.79,0.01042274511333786
1001.79,0.01048650903941597
997.79,0.00913455522913051
993.79,0.007489734713239897
989.8,0.00669396455094092
985.8,0.006575794961365487
981.8,0.006300909340751844
977.8,0.005578204632912738
973.81,0.004641527905045668
969.81,0.0035742516312297443
965.81,0.0021180662169286314
961.81,-0.00023080507756063733
957.82,-0.004064584936508759
953.82,-0.009201877023733925
949.82,-0.013673146553815525
945.82,-0.014639827674402833
941.83,-0.01128708875542063
937.83,-0.005964195583470132
933.83,-0.0016405751979681957
929.83,0.0007291764091875291
925.84,0.0017571836077108702
921.84,0.0018453210139310408
917.84,0.0011501935068379404
913.84,0.0004369086251678443
909.84,0.0005685496144042304
905.85,0.0014599697461952811
901.85,0.002563339758336112
897.85,0.0038339422358877138
893.85,0.00509996575907209
889.86,0.005360989050855658
885.86,0.003930028649594438
881.86,0.001794907216148587
877.86,0.0005956581191922071
873.87,0.0005854272881554139
869.87,0.0008510890844704126
865.87,0.0009746385675663098
861.87,0.0012048146912048384
857.88,0.0015578335288380166
853.88,0.0022473787949920283
849.88,0.003922560868177879
845.88,0.006194792766064199
841.89,0.007050071269807456
837.89,0.0055332247349614595
833.89,0.0033664390020824962
829.89,0.0019785330328373867
825.89,0.00026172266178064313
821.9,-0.002678053827942041
817.9,-0.0041069553551208865
813.9,-0.0007286108508331723
809.9,0.005109029758529282
805.91,0.008145077980665855
801.91,0.006637116034928489
797.91,0.002975801830825825
793.91,0.00023034778736163997
789.92,0.00018205310052571422
785.92,0.0029867463194883093
781.92,0.006844647472134313
777.92,0.009289654641415068
773.93,-0.0077158386521647415
769.93,-0.015300042236541245
765.93,0.017226736983310786
761.93,-0.002570997649145701
757.94,-0.04396229233547211
753.94,0.006086825574657451
749.94,0.013439966558212002
745.94,-0.022303877758891977
741.95,-0.0852783898690036
737.95,-0.07303002001145609
733.95,-0.11803123170446006
729.95,-0.16740056743144138
725.95,-0.258159085139475
721.96,-0.16066514139672644
717.96,-0.07278087476463807
713.96,-0.045160939871720596
709.96,-0.020534764968949015
705.97,0.0038382235566957745
701.97,-0.13542257162339927
697.97,-0.21722240207963167
693.97,-0.3624225724173875
689.98,-0.2887828898165843
685.98,-0.603371898024871
681.98,-0.29443601727609997
677.98,-0.17029614207317642
673.99,0.10010987568299874
669.99,0.1590961986987022
665.99,0.09965154920636038
661.99,0.20814319192027694
658.0,0.17830691596941992
654.0,0.137888052796734
650.0,-0.0329824572327483
