wavenumber,transmittance
4000.0,-0.008895411428179572
3996.0,-0.009162005483208627
3992.0,-0.009643603117177255
3988.01,-0.011449647049565997
3984.01,-0.01288762958435264
3980.01,-0.011940306526369376
3976.01,-0.009424701112641902
3972.02,-0.007265853072908663
3968.02,-0.005624085181287188
3964.02,-0.003966414059015212
3960.02,-0.003253591041517398
3956.03,-0.0046307957064111935
3952.03,-0.006960630338279267
3948.03,-0.008036902422543738
3944.03,-0.007966473394159637
3940.04,-0.008427573163083702
3936.04,-0.009813410730601903
3932.04,-0.011596123229767998
3928.04,-0.014042129950880347
3924.05,-0.016952240320171574
3920.05,-0.01809004599910893
3916.05,-0.016631942547469945
3912.05,-0.016267106602328024
3908.05,-0.020593011957802686
3904.06,-0.027145987946260212
3900.06,-0.0289575923951211
3896.06,-0.02516756170460235
3892.06,-0.02224870220061529
3888.07,-0.02359343500868997
3884.07,-0.026214400225431422
3880.07,-0.027104150149579332
3876.07,-0.027805862492860704
3872.08,-0.029849715852298384
3868.08,-0.03093169557352697
3864.08,-0.02897925870054381
3860.08,-0.0259439938199583
3856.09,-0.02452058100560118
3852.09,-0.025054538194109778
3848.09,-0.027003574661184387
3844.09,-0.030385511076172596
3840.1,-0.03375030768364911
3836.1,-0.03386715796360266
3832.1,-0.03115705092199699
3828.1,-0.030285810998376895
3824.11,-0.031999429050425014
3820.11,-0.03131214428921212
3816.11,-0.025639897684508202
3812.11,-0.02071258372632586
3808.11,-0.0210352900446792
3804.12,-0.023005496535029053
3800.12,-0.02012286681580326
3796.12,-0.013751098897507412
3792.12,-0.01068488801764602
3788.13,-0.012453402577936033
3784.13,-0.015418143901284754
3780.13,-0.016570345735182523
3776.13,-0.016811457738906573
3772.14,-0.01791539261676841
3768.14,-0.019683178845892255
3764.14,-0.02178617248271982
3760.14,-0.025652028700458372
3756.15,-0.032621693229819636
3752.15,-0.04154353608207808
3748.15,-0.0489426897345171
3744.15,-0.05256765803668611
3740.16,-0.05288191071685483
3736.16,-0.05032849722534993
3732.16,-0.045295239125450026
3728.16,-0.0394714763389452
3724.16,-0.034976399814107016
3720.17,-0.032998692736280116
3716.17,-0.03306905317794359
3712.17,-0.03229711045208633
3708.17,-0.027188358934853597
3704.18,-0.019248472888667077
3700.18,-0.014845548087148348
3696.18,-0.01777953797484716
3692.18,-0.024377560732213113
3688.19,-0.026641679378924914
3684.19,-0.023117028702014628
3680.19,-0.020208236710887235
3676.19,-0.020968262581241535
3672.2,-0.020079733496424248
3668.2,-0.01402709131581799
3664.2,-0.009826726838747715
3660.2,-0.015005366217280719
3656.21,-0.029405030307954102
3652.21,-0.042789570171474355
3648.21,-0.04190930490217869
3644.21,-0.030314988685202177
3640.21,-0.021820197189930994
3636.22,-0.021773882924386468
3632.22,-0.026948466461396845
3628.22,-0.0312158702385525
3624.22,-0.03184127753161417
3620.23,-0.030917185486579003
3616.23,-0.029884177438645156
3612.23,-0.027161710880109338
3608.23,-0.02199630313048127
3604.24,-0.01752935132890819
3600.24,-0.017527892042590372
3596.24,-0.022234766286841578
3592.24,-0.02775062085895162
3588.25,-0.028806454971231216
3584.25,-0.024298889217706954
3580.25,-0.018672036630463393
3576.25,-0.016636873306926488
3572.26,-0.01901982312764929
3568.26,-0.02269842296600445
3564.26,-0.023780395090137935
3560.26,-0.02215234402566847
3556.26,-0.020589071664705912
3552.27,-0.02006048807072709
3548.27,-0.018917267973411738
3544.27,-0.016092537891119214
3540.27,-0.01332125027887533
3536.28,-0.012684556578153872
3532.28,-0.01355645000820994
3528.28,-0.013196571623248454
3524.28,-0.009665762212188251
3520.29,-0.004284819385351598
3516.29,-0.0008617462843113054
3512.29,-0.002026948529097688
3508.29,-0.006267897274877557
3504.3,-0.00865948502081734
3500.3,-0.0059077374783222504
3496.3,-0.0005771678904139353
3492.3,0.001782726851064953
3488.31,-0.0009887873026795772
3484.31,-0.00595990630966677
3480.31,-0.008990914928366935
3476.31,-0.008959618720461896
3472.32,-0.007715127743360606
3468.32,-0.007298014053407821
3464.32,-0.008591074009222491
3460.32,-0.011212764964794385
3456.32,-0.01373690202846397
3452.33,-0.014853553893672
3448.33,-0.014608927835575273
3444.33,-0.013881537947357473
3440.33,-0.012430989280394515
3436.34,-0.009419275104892893
3432.34,-0.005765673865093585
3428.34,-0.0039028473349445106
3424.34,-0.004726302613128475
3420.35,-0.00638523166594807
3416.35,-0.0067754445796242395
3412.35,-0.005750114179967245
3408.35,-0.004215823404172687
3404.36,-0.002851093623252185
3400.36,-0.002595942776780725
3396.36,-0.004596832388218492
3392.36,-0.008291258003984925
3388.37,-0.010986171734551669
3384.37,-0.010880020278919158
3380.37,-0.009261431120109662
3376.37,-0.008384182572467095
3372.37,-0.008796141059231955
3368.38,-0.009980343021521003
3364.38,-0.011763739147735772
3360.38,-0.013253352548754009
3356.38,-0.012336988030367212
3352.39,-0.008492454701576774
3348.39,-0.004658442780583234
3344.39,-0.0037916200121965882
3340.39,-0.005055276401305752
3336.4,-0.00557210246058697
3332.4,-0.004782388899964296
3328.4,-0.004673212177325529
3324.4,-0.0062325730856465
3320.41,-0.008438961693152674
3316.41,-0.010415577693895853
3312.41,-0.01195869216671637
3308.41,-0.012016811764407942
3304.42,-0.009590790224208372
3300.42,-0.006549979840458466
3296.42,-0.006462333723894518
3292.42,-0.009918495655659677
3288.42,-0.013499293357834903
3284.43,-0.014425034975110128
3280.43,-0.014021894891423756
3276.43,-0.014742278196228422
3272.43,-0.016354071602283186
3268.44,-0.01716682721782396
3264.44,-0.017132247965990152
3260.44,-0.01734199510360042
3256.44,-0.017573908575499685
3252.45,-0.01671708457933358
3248.45,-0.015071685258160718
3244.45,-0.01407337345283811
3240.45,-0.013993786870699649
3236.46,-0.013642993533058125
3232.46,-0.012322728869351828
3228.46,-0.01077802931662605
3224.46,-0.01007762679124782
3220.47,-0.010427857605696995
3216.47,-0.01129312459292615
3212.47,-0.012062638229184724
3208.47,-0.012559881952944964
3204.47,-0.013094239386877215
3200.48,-0.01379522117461406
3196.48,-0.013979672470389042
3192.48,-0.012850403951233227
3188.48,-0.01098027992995106
3184.49,-0.01009931410359268
3180.49,-0.01091012235034381
3176.49,-0.01213528007527571
3172.49,-0.012344480224906765
3168.5,-0.011785010093965782
3164.5,-0.011422974117381444
3160.5,-0.01116307596387419
3156.5,-0.010365380632757075
3152.51,-0.009515465568690566
3148.51,-0.00977225546001389
3144.51,-0.01114751588310564
3140.51,-0.012449547118452423
3136.52,-0.013098929971053108
3132.52,-0.013815334766641246
3128.52,-0.015029331215734014
3124.52,-0.015751758710148125
3120.53,-0.014849394845866962
3116.53,-0.012852984425346728
3112.53,-0.011602466020743395
3108.53,-0.012196431502521681
3104.53,-0.01382252613175942
3100.54,-0.01477866395178516
3096.54,-0.014312656341743502
3092.54,-0.013091252343760601
3088.54,-0.01197459226215006
3084.55,-0.011009326676500621
3080.55,-0.009799547093655731
3076.55,-0.008495302599693045
3072.55,-0.007755304585394106
3068.56,-0.007760514466353459
3064.56,-0.007966358205213492
3060.56,-0.00801047107594392
3056.56,-0.00833128940585632
3052.57,-0.00957663408244697
3048.57,-0.011774657825224546
3044.57,-0.0143379715238551
3040.57,-0.016547790984387516
3036.58,-0.017669397916402416
3032.58,-0.016990304017169194
3028.58,-0.014455445239124474
3024.58,-0.01121462086610131
3020.58,-0.00902260972539537
3016.59,-0.008872335013435068
3012.59,-0.010190182174881754
3008.59,-0.011365480040682344
3004.59,-0.01102769057889072
3000.6,-0.009038492334384522
2996.6,-0.006388455837008665
2992.6,-0.0040315852577436535
2988.6,-0.002024705850984111
2984.61,-0.00013190431464975283
2980.61,0.001142374119239356
2976.61,0.000849840948676038
2972.61,-0.0011946049731377598
2968.62,-0.004023051608713524
2964.62,-0.006403869418097556
2960.62,-0.007764723611307513
2956.62,-0.008119047633785317
2952.63,-0.007588426507483405
2948.63,-0.006401161653577583
2944.63,-0.004919289794450506
2940.63,-0.0033365777056807502
2936.63,-0.0017383299212338117
2932.64,-0.0006031202761272864
2928.64,-0.0005553961370442506
2924.64,-0.0014369889562740774
2920.64,-0.002156690247608211
2916.65,-0.0019233879788811414
2912.65,-0.0012063686975268655
2908.65,-0.0008825148003884925
2904.65,-0.0012023973522398666
2900.66,-0.0019126493416157762
2896.66,-0.002623749593536173
2892.66,-0.002950690996528234
2888.66,-0.0027428581024678787
2884.67,-0.002322155386426543
2880.67,-0.0022078672480027595
2876.67,-0.00250611366807265
2872.67,-0.002932322673906137
2868.68,-0.003389617688142589
2864.68,-0.003975760496696469
2860.68,-0.004328717153272047
2856.68,-0.0036994020414626017
2852.68,-0.0020533681347735047
2848.69,-0.0004818621073660982
2844.69,7.701908438119062e-05
2840.69,-0.00019299094363801894
2836.69,-0.0007936294534888234
2832.7,-0.001622925638286513
2828.7,-0.0024426826535684423
2824.7,-0.0026191613809971055
2820.7,-0.0020855486873723322
2816.71,-0.0017410817292315087
2812.71,-0.0021476724803898267
2808.71,-0.0025470621232355443
2804.71,-0.002135115836014405
2800.72,-0.0016215798525684444
2796.72,-0.00225862485585376
2792.72,-0.003840026026034329
2788.72,-0.004963362678922905
2784.73,-0.005137790394849387
2780.73,-0.005252515175376636
2776.73,-0.0057676461117296225
2772.73,-0.005847572890374911
2768.74,-0.004870545108586142
2764.74,-0.0036859034815613784
2760.74,-0.0035785926638912825
2756.74,-0.004653386636553208
2752.74,-0.0059157129352513035
2748.75,-0.006556186706246973
2744.75,-0.0065322864430416025
2740.75,-0.006203272199939567
2736.75,-0.005943938235775059
2732.76,-0.005991305470383445
2728.76,-0.006302630021347428
2724.76,-0.006597579391856027
2720.76,-0.006700226126776515
2716.77,-0.006666089482564855
2712.77,-0.006529083429784181
2708.77,-0.006240226892637837
2704.77,-0.005975200167844064
2700.78,-0.006114500635890875
2696.78,-0.0066642707335786006
2692.78,-0.0070782506723299984
2688.78,-0.006977224997622188
2684.79,-0.0067310195201637345
2680.79,-0.006905502006114764
2676.79,-0.007358826023024217
2672.79,-0.007366541122804325
2668.79,-0.006584754629013943
2664.8,-0.005490579888121797
2660.8,-0.00480450365379833
2656.8,-0.004766384455390294
2652.8,-0.005054044989125728
2648.81,-0.005191401538045939
2644.81,-0.0050026979412332445
2640.81,-0.004751372339840924
2636.81,-0.004897077818448031
2632.82,-0.005575953742225176
2628.82,-0.006199905894836771
2624.82,-0.005766745474806373
2620.82,-0.0038548228020547793
2616.83,-0.0012554220815341414
2612.83,0.0005211291188507317
2608.83,0.0005170795849270913
2604.83,-0.0012724636391364891
2600.84,-0.004690102592317938
2596.84,-0.009482184438269266
2592.84,-0.01413405808398471
2588.84,-0.015861975689780462
2584.84,-0.013387174450083233
2580.85,-0.009393619844529157
2576.85,-0.007717908484900299
2572.85,-0.008777217920928922
2568.85,-0.00960018639580144
2564.86,-0.0082057283957375
2560.86,-0.00649629018950707
2556.86,-0.007114347271821816
2552.86,-0.009701708413573951
2548.87,-0.01169085817804658
2544.87,-0.011062718908964233
2540.87,-0.007726316849333792
2536.87,-0.00280835417366787
2532.88,0.001395207089918785
2528.88,0.0022354142622402345
2524.88,-0.001362254587092649
2520.88,-0.007621694338691717
2516.89,-0.01333013184470744
2512.89,-0.01687635759568784
2508.89,-0.018234063968148497
2504.89,-0.01685008423254531
2500.89,-0.012885119222234691
2496.9,-0.00924611705385045
2492.9,-0.009131056620757718
2488.9,-0.012272670901921003
2484.9,-0.015141849420785645
2480.91,-0.015213898202295642
2476.91,-0.012881467613221793
2472.91,-0.00934026728083255
2468.91,-0.005197957970194807
2464.92,-0.0010945806459183357
2460.92,0.0017258008373325796
2456.92,0.0022030221284178447
2452.92,0.0008126261504513201
2448.93,-0.000961868377061921
2444.93,-0.002450500287155379
2440.93,-0.0038593650823437395
2436.93,-0.005465047467778022
2432.94,-0.0070083399198075476
2428.94,-0.007858772394189287
2424.94,-0.007693377717348332
2420.94,-0.006961204864139592
2416.95,-0.006359878164325882
2412.95,-0.006218485006281653
2408.95,-0.006230597066666068
2404.95,-0.005773480359665004
2400.95,-0.004856624810757576
2396.96,-0.004247962111238238
2392.96,-0.0047504904547209775
2388.96,-0.006065528740754477
2384.96,-0.006577302319853498
2380.97,-0.004802747352433137
2376.97,-0.0010182238470622055
2372.97,0.0022243222707502555
2368.97,0.0024668469666739396
2364.98,0.0005904424337038429
2360.98,-0.0002533522724024093
2356.98,0.0007294653977776722
2352.98,0.0015308241531848928
2348.99,0.0011280539212943832
2344.99,0.0007315340633687706
2340.99,0.002175861187006219
2336.99,0.005557127608076006
2333.0,0.008953003915537681
2329.0,0.01076322918912744
2325.0,0.010556526644188376
2321.0,0.008445519511636147
2317.0,0.005330593142982943
2313.01,0.0033601493526026526
2309.01,0.004632370230647784
2305.01,0.009182906520347603
2301.01,0.015628942965081064
2297.02,0.022391515006285192
2293.02,0.0276821459643513
2289.02,0.030947346828901788
2285.02,0.03371107405060067
2281.03,0.03930762103683362
2277.03,0.05088259625943986
2273.03,0.06537462311076783
2269.03,0.07538847485469545
2265.04,0.07341754270192621
2261.04,0.05879653284433432
2257.04,0.03975096286391253
2253.04,0.022545187972704394
2249.05,0.017118244256339097
2245.05,0.025929456665267588
2241.05,0.038143856194766464
2237.05,0.04941221341653191
2233.05,0.057953868828582
2229.06,0.05959024190271686
2225.06,0.0482647220336543
2221.06,0.026873741404231828
2217.06,0.007823278077021406
2213.07,0.0003558442513059215
2209.07,0.007196146173970901
2205.07,0.018279547004126904
2201.07,0.026499428686759974
2197.08,0.028372029244949346
2193.08,0.02516930334192165
2189.08,0.015278242469966452
2185.08,-0.005857384044879852
2181.09,-0.02966202213093926
2177.09,-0.040878526349108796
2173.09,-0.02501027369339245
2169.09,0.003372291221026308
2165.1,0.01986442275287164
2161.1,0.03131748132699703
2157.1,0.052636586167065666
2153.1,0.0703107303943956
2149.11,0.06079471572203612
2145.11,0.03692597651470498
2141.11,0.02042497611947361
2137.11,0.013026108019410627
2133.11,0.006841581137001153
2129.12,0.0029705823198018606
2125.12,0.0028480708702752888
2121.12,0.005039533893076876
2117.12,0.002378407353694958
2113.13,-0.01097749910856192
2109.13,-0.031135550847392217
2105.13,-0.04419693951694039
2101.13,-0.040726211748663685
2097.14,-0.032693949212863616
2093.14,-0.03132300221415642
2089.14,-0.032593405541801145
2085.14,-0.026610375425084203
2081.15,-0.013718000035351289
2077.15,0.0023299325194502934
2073.15,0.021409904655948865
2069.15,0.0330071280867858
2065.16,0.0257015491852405
2061.16,0.007190963605501253
2057.16,0.0020608648609100316
2053.16,0.01327733712068728
2049.16,0.02875037370580365
2045.17,0.05814202340612806
2041.17,0.08951979135906113
2037.17,0.08629150983712505
2033.17,0.06910797481957329
2029.18,0.037513898109223516
2025.18,-0.004904159233070648
2021.18,-0.013892894248399953
2017.18,-0.011689795764312604
2013.19,-0.02568858598520941
2009.19,-0.013527345331306333
2005.19,0.01921263638524463
2001.19,0.044919972844619974
1997.2,0.05880177487261988
1993.2,0.045195011906554616
1989.2,0.01152184332978928
1985.2,-0.03131597994310026
1981.21,-0.06897346683374556
1977.21,-0.05245628357634126
1973.21,-0.028418384914653275
1969.21,-0.012284503511504136
1965.21,-0.008731179523635915
1961.22,-0.008426985402107215
1957.22,-0.009852354973843878
1953.22,-0.023537907523347314
1949.22,-0.048342427944702095
1945.23,-0.05595889294834399
1941.23,-0.03889675586050809
1937.23,-0.027913715789615597
1933.23,-0.03550244339819829
1929.24,-0.040812671269697134
1925.24,-0.02740073835294942
1921.24,-0.010334841276914261
1917.24,-0.0032860577223426217
1913.25,-0.003719849525378977
1909.25,-0.005913689092828287
1905.25,-0.010727002154376455
1901.25,-0.01845633686087992
1897.26,-0.0217384567619878
1893.26,-0.016326333822216134
1889.26,-0.009294561287144945
1885.26,-0.005808502230543074
1881.26,-0.004714324289725003
1877.27,-0.005473113237161626
1873.27,-0.010211535180728074
1869.27,-0.016737991355251274
1865.27,-0.01761236624411608
1861.28,-0.012288892151408087
1857.28,-0.009733690823538796
1853.28,-0.01355803444306591
1849.28,-0.01770092534014317
1845.29,-0.016539598440738323
1841.29,-0.014880236747585797
1837.29,-0.01766907276460622
1833.29,-0.02132384984645391
1829.3,-0.020228366773473658
1825.3,-0.0163159531355522
1821.3,-0.014322616898606609
1817.3,-0.014205171490158684
1813.31,-0.014170591903156064
1809.31,-0.015248018136187758
1805.31,-0.018809236775594998
1801.31,-0.022961722578863527
1797.32,-0.024192696512487
1793.32,-0.02224417451757422
1789.32,-0.019618372863819688
1785.32,-0.01809547276919665
1781.32,-0.018774862896735616
1777.33,-0.02232603177932421
1773.33,-0.026734904528537676
1769.33,-0.027458479786557046
1765.33,-0.02429093215972169
1761.34,-0.02287577183980438
1757.34,-0.02650017771030257
1753.34,-0.03195758378888587
1749.34,-0.034244189861961385
1745.35,-0.03476265243177339
1741.35,-0.03721686834227479
1737.35,-0.03914730865294226
1733.35,-0.03603389417920787
1729.36,-0.03172142865122272
1725.36,-0.0323322924849745
1721.36,-0.03705508685570336
1717.36,-0.03956429166479967
1713.37,-0.03858866574942195
1709.37,-0.039964423253330675
1705.37,-0.04544566338411878
1701.37,-0.04853651905291672
1697.37,-0.044673743751548714
1693.38,-0.03971293721167867
1689.38,-0.03821761583993804
1685.38,-0.037744211624086435
1681.38,-0.035226414921605095
1677.39,-0.03188818122375738
1673.39,-0.029091907722845426
1669.39,-0.02577738495148035
1665.39,-0.022709848436309986
1661.4,-0.023547318323997098
1657.4,-0.029933668844130533
1653.4,-0.03684629892779731
1649.4,-0.03660285852471183
1645.41,-0.03117251819736237
1641.41,-0.026877964633162894
1637.41,-0.02506905713527924
1633.41,-0.024203523571558486
1629.42,-0.02393835645784174
1625.42,-0.024658579605443168
1621.42,-0.025056372055920782
1617.42,-0.023158164332763107
1613.42,-0.01925652415871063
1609.43,-0.015194729297824415
1605.43,-0.012092465248351163
1601.43,-0.010249503248358993
1597.43,-0.009450102038389828
1593.44,-0.009002152956071551
1589.44,-0.008813682934363982
1585.44,-0.010240045725313823
1581.44,-0.014329687167514538
1577.45,-0.019458719186446767
1573.45,-0.022995486237661428
1569.45,-0.025952758826567064
1565.45,-0.03136596671600711
1561.46,-0.03757288370270074
1557.46,-0.03799127199799591
1553.46,-0.033867251882065866
1549.46,-0.0338452169199839
1545.47,-0.040126420003690724
1541.47,-0.04474815036412526
1537.47,-0.040758281845417695
1533.47,-0.03590371708430326
1529.47,-0.03776633929033101
1525.48,-0.04391739589234163
1521.48,-0.047269376544063005
1517.48,-0.04724086445657142
1513.48,-0.04781217449994863
1509.49,-0.04668960292295562
1505.49,-0.03936886572900207
1501.49,-0.02967224852006732
1497.49,-0.023398278201032185
1493.5,-0.019658319233681602
1489.5,-0.014834502605080645
1485.5,-0.009938636941775825
1481.5,-0.008636597273613357
1477.51,-0.010644317147805026
1473.51,-0.011439767388504406
1469.51,-0.0094583547355978
1465.51,-0.009225021413151763
1461.52,-0.012846033077747766
1457.52,-0.014808728613231736
1453.52,-0.0098876308657729
1449.52,-0.002973985919046615
1445.53,-0.000581405498990259
1441.53,-0.0030451184019097757
1437.53,-0.005979325871419479
1433.53,-0.006518658759054524
1429.53,-0.0065295203994778575
1425.54,-0.007815520775621261
1421.54,-0.008723859777037449
1417.54,-0.00705771717152423
1413.54,-0.004178214420913325
1409.55,-0.0032381109247022824
1405.55,-0.00540681962042408
1401.55,-0.008539949122933103
1397.55,-0.00879602243355445
1393.56,-0.004651493007175857
1389.56,0.0009890113561929759
1385.56,0.004255152763275941
1381.56,0.0044395338400886886
1377.57,0.0035437563408141914
1373.57,0.003031142194033859
1369.57,0.0023235536355210654
1365.57,0.0009760001719584556
1361.58,0.0004164285129910454
1357.58,0.001701956123560694
1353.58,0.0030501420415116644
1349.58,0.0018994749599247976
1345.58,-0.0015598811978606783
1341.59,-0.004176340481365962
1337.59,-0.003637042292136971
1333.59,-0.0013294988539865153
1329.59,-2.663527301390023e-05
1325.6,-0.0005845653527140823
1321.6,-0.0017673354200068263
1317.6,-0.002125161842882955
1313.6,-0.0012838301316065587
1309.61,0.0002235306565982441
1305.61,0.0016738339085686678
1301.61,0.0026321636172588446
1297.61,0.0030880110974216106
1293.62,0.0033181633022680047
1289.62,0.003603276927292686
1285.62,0.004096644288711364
1281.62,0.004819429621479264
1277.63,0.005475138563150496
1273.63,0.005389827147100276
1269.63,0.004089557656508709
1265.63,0.0020511729498862707
1261.63,0.00044690068922374065
1257.64,-0.00014353347372793313
1253.64,-3.915522487630413e-05
1249.64,0.0007585964583860724
1245.64,0.0031497997797743232
1241.65,0.007758416243267244
1237.65,0.013549899100743626
1233.65,0.018242140482695818
1229.65,0.020335013948332342
1225.66,0.020201002672601942
1221.66,0.018978667420642137
1217.66,0.017593706528655995
1213.66,0.017722526773278124
1209.67,0.01802393173101907
1205.67,0.017536153611247607
1201.67,0.016596390862738786
1197.67,0.014857382953488693
1193.68,0.012217370855522575
1189.68,0.009461473897544342
1185.68,0.00773756300006067
1181.68,0.007611527190167271
1177.68,0.008791896596933108
1173.69,0.010636086297557884
1169.69,0.012691228309780617
1165.69,0.014773998627569965
1161.69,0.01677170936545383
1157.7,0.018409320268193904
1153.7,0.019165715085301155
1149.7,0.018492061292703255
1145.7,0.016194463311112503
1141.71,0.012596279306380034
1137.71,0.008458407195482055
1133.71,0.004896455504527011
1129.71,0.0030676708214533444
1125.72,0.0034795531136990673
1121.72,0.005519107766611308
1117.72,0.007873946575081042
1113.72,0.009628156429475083
1109.73,0.010894821771636354
1105.73,0.012421703480308108
1101.73,0.014866269907043608
1097.73,0.01827453594585282
1093.74,0.02168302575149114
1089.74,0.023289181224702672
1085.74,0.02201292790365577
1081.74,0.019203922589461804
1077.74,0.01764840949715565
1073.75,0.018542057579060484
1069.75,0.020237437453047676
1065.75,0.020444001627902622
1061.75,0.018965490323456912
1057.76,0.017282521994874355
1053.76,0.016288031347850142
1049.76,0.015612760592263136
1045.76,0.014770366797404061
1041.77,0.013850816102436355
1037.77,0.013047092422945116
1033.77,0.012344226282549615
1029.77,0.011789321501248794
1025.78,0.01140945951869115
1021.78,0.01088062408696909
1017.78,0.010023084407774312
1013.78,0.009497729192393781
1009.79,0.01005993686661109
1005.79,0.01114354478577204
1001.79,0.011214734046279345
997.79,0.009735993424137076
993.79,0.007858596003050505
989.8,0.006859073331088364
985.8,0.00666547440681645
981.8,0.00640405247747358
977.8,0.005678779810352887
973.81,0.0046889002486510956
969.81,0.0035679217459908194
965.81,0.0020979145062462855
961.81,-0.0002534222132157121
957.82,-0.004150337742996297
953.82,-0.009453824376573348
949.82,-0.014122357494937867
945.82,-0.015126492624163379
941.83,-0.011505961424481861
937.83,-0.005695708724462095
933.83,-0.0009264867107359395
929.83,0.0016705464346318047
925.84,0.0027455452183995227
921.84,0.0027697963040677204
917.84,0.0018458916408066496
913.84,0.0007359823243988477
909.84,0.0005157970313500043
905.85,0.0013224283231327728
901.85,0.002571859996819687
897.85,0.004047183739527923
893.85,0.005505381847114311
889.86,0.005905533236749234
885.86,0.0044268573339507605
881.86,0.0020240159768622028
877.86,0.000593295925016191
873.87,0.0006074611727311732
869.87,0.0009622053949995338
865.87,0.0009681334332486569
861.87,0.0010350875584721024
857.88,0.001521100532534403
853.88,0.002517970364957156
849.88,0.0043036525450856344
845.88,0.0065403621007655115
841.89,0.007572266012557338
837.89,0.006428183588183263
833.89,0.0045288378457750515
829.89,0.0033751896065649725
825.89,0.0020365878110951696
821.9,-0.0010118357586535245
817.9,-0.003957506787552141
813.9,-0.002676243302824302
809.9,0.0028622551655593242
805.91,0.008140673534907314
801.91,0.00964039464930977
797.91,0.007558697632102068
793.91,0.004995233664192883
789.92,0.005256390775811914
785.92,0.008286053857699094
781.92,0.009811007064353061
777.92,0.007671968334034718
773.93,-0.014212826935449008
769.93,-0.03939830790813059
765.93,-0.021355848472920824
761.93,-0.046880741251755564
757.94,-0.03910502328778853
753.94,0.03236778141386876
749.94,0.0029271680244862264
745.94,-0.025526670437341914
741.95,-0.07399756535478119
737.95,-0.11195687719663927
733.95,-0.17033447308406557
729.95,-0.1872782716905873
725.95,-0.23640201710966796
721.96,-0.06574309883373475
717.96,0.029022559556779237
713.96,0.0513029513814503
709.96,0.0423389482331325
705.97,-0.034769619130893714
701.97,-0.17895804218139402
697.97,-0.23255176689788587
693.97,-0.3826483127280507
689.98,-0.28513153922617696
685.98,-0.6354269625588144
681.98,-0.37613341160764224
677.98,-0.22866580560671296
673.99,0.07749355242430743
669.99,0.15473611053825082
665.99,0.09360761036723331
661.99,0.18723167813927244
658.0,0.1867090498602168
654.0,0.15350272692198771
650.0,-0.04396930481333684
