wavenumber,transmittance
4000.0,4.423210046477252e-05
3996.0,-6.683207236137878e-05
3992.0,-7.176838465860385e-05
3988.01,3.8641296619614136e-05
3984.01,0.0003538999734942032
3980.01,0.0008810017525030822
3976.01,0.0013564310034788858
3972.02,0.001386959893966221
3968.02,0.0008575082059980137
3964.02,0.00015962679821690182
3960.02,-0.00016674438503069475
3956.03,-2.6949105864461365e-05
3952.03,0.00019058163339556213
3948.03,0.00014345952652410846
3944.03,-3.8058597832060434e-05
3940.04,-3.0283036077939987e-05
3936.04,0.00013663023767774554
3932.04,0.00010869872232943624
3928.04,-0.00023875398743129837
3924.05,-0.0006139097854636643
3920.05,-0.0007135023705102506
3916.05,-0.0005632323895489089
3912.05,-0.0002838399720439858
3908.05,0.00019264602835103537
3904.06,0.0008225479127275453
3900.06,0.0010820180690638353
3896.06,0.0005920727283038502
3892.06,-0.00019167417228051762
3888.07,-0.0005305406769701785
3884.07,-0.000250692444719698
3880.07,7.903956673453895e-05
3876.07,-2.74712974254669e-05
3872.08,-0.00042837607768793167
3868.08,-0.0006811699517578381
3864.08,-0.000617212990183744
3860.08,-0.0004190436824232256
3856.09,-0.0002908858168250315
3852.09,-0.0002976609628908928
3848.09,-0.0003369742433315319
3844.09,-0.0002550267324390569
3840.1,-5.645855764747497e-05
3836.1,3.0038434576794715e-05
3832.1,-6.869364063102033e-05
3828.1,2.6244817237132487e-05
3824.11,0.0006038624216070606
3820.11,0.0012848246468794755
3816.11,0.0013169990062033817
3812.11,0.0007747496903453414
3808.11,0.0003914220628641193
3804.12,0.00040987943888579244
3800.12,0.000407114817473196
3796.12,0.0002058002797518995
3792.12,0.0002825187907759853
3788.13,0.000882404433638928
3784.13,0.0015667058094995727
3780.13,0.0017443669448610872
3776.13,0.0014755353404574466
3772.14,0.0012253618650141641
3768.14,0.0011300015783790274
3764.14,0.0010128516886567615
3760.14,0.0007567936686700611
3756.15,0.0002773867176552137
3752.15,-0.0005358000766333896
3748.15,-0.001209286004748629
3744.15,-0.00061423771395219
3740.16,0.001433793464794839
3736.16,0.003565761494443978
3732.16,0.004226011977856111
3728.16,0.0033360592117459573
3724.16,0.0020144625266864825
3720.17,0.0010125846572925376
3716.17,0.00046125762899784217
3712.17,0.00044627729585884623
3708.17,0.0008869748479715519
3704.18,0.0011293256629060404
3700.18,0.000612235822400586
3696.18,-0.0003518281870524293
3692.18,-0.0009778799865766147
3688.19,-0.0009547512125375151
3684.19,-0.0006918352199021087
3680.19,-0.0005056185602781271
3676.19,-0.00022846951082502835
3672.2,0.0001889161968313905
3668.2,0.00034401583764025884
3664.2,8.499599927346696e-05
3660.2,-0.0003202493964726879
3656.21,-0.0007583529448191592
3652.21,-0.0011408702975130103
3648.21,-0.0010315045513451177
3644.21,-0.0003331256914268683
3640.21,0.00019630840786186718
3636.22,-0.0001661180492009617
3632.22,-0.0012641040894156104
3628.22,-0.002073262201394978
3624.22,-0.0020019972957096405
3620.23,-0.001710852962925796
3616.23,-0.001727423587686695
3612.23,-0.001512558704361542
3608.23,-0.00046950914491286806
3604.24,0.0008629463477474106
3600.24,0.0014613440264616816
3596.24,0.0010267858757162449
3592.24,6.948680498016988e-05
3588.25,-0.00066548244356426
3584.25,-0.0008523907722369657
3580.25,-0.0008087744692227743
3576.25,-0.0010327964299810134
3572.26,-0.001634773748412562
3568.26,-0.002066052107571815
3564.26,-0.0014960801325555068
3560.26,5.3680499466544906e-05
3556.26,0.0015667421333706326
3552.27,0.0020987665185571644
3548.27,0.0014890094583065797
3544.27,0.00034793340820866644
3540.27,-0.0005227978795699587
3536.28,-0.0007104608782703224
3532.28,-0.0001970736615400752
3528.28,0.0007235077665443054
3524.28,0.0015511031799836095
3520.29,0.0019669465856129408
3516.29,0.0019033486530905981
3512.29,0.0013049479659921655
3508.29,0.0002342546429400169
3504.3,-0.0008506470552934846
3500.3,-0.0013049033550012676
3496.3,-0.0010274105835716453
3492.3,-0.0006747318010328629
3488.31,-0.0008144373681154456
3484.31,-0.0012281002158668342
3480.31,-0.0012383071633414802
3476.31,-0.0006761430260698031
3472.32,-0.00020036804881179773
3468.32,-0.00048469745627986727
3464.32,-0.0013669074002602387
3460.32,-0.0020061212796833733
3456.32,-0.0018103713179806382
3452.33,-0.0010401387584369239
3448.33,-0.0004112348371106689
3444.33,-0.0002729047801653256
3440.33,-0.0003089833847211322
3436.34,-9.026616586061548e-05
3432.34,0.000311570825827355
3428.34,0.00047192625865684
3424.34,0.00015999790546469134
3420.35,-0.00044469464697732136
3416.35,-0.0010013251055939823
3412.35,-0.0013218697571478304
3408.35,-0.0014497208526838383
3404.36,-0.0015660627232022585
3400.36,-0.0017892955013491738
3396.36,-0.001962307549042662
3392.36,-0.0017244518263239625
3388.37,-0.0009790597847856158
3384.37,-0.00015720781757148916
3380.37,0.0001355703340121077
3376.37,-0.00025180510555380953
3372.37,-0.0009453376901876406
3368.38,-0.0015251160186583596
3364.38,-0.0018530020813584645
3360.38,-0.0020030750052332236
3356.38,-0.0020115797870314464
3352.39,-0.0017752234234800733
3348.39,-0.0011366927125887015
3344.39,-0.00011621088758010864
3340.39,0.0008759242473183916
3336.4,0.0012515230569035592
3332.4,0.0008341882836654033
3328.4,9.908866412547054e-05
3324.4,-0.000364239570954359
3320.41,-0.00044261167719199593
3316.41,-0.00036244862575389447
3312.41,-0.00022274696658358337
3308.41,2.9799003597591467e-06
3304.42,0.00016307086218260436
3300.42,0.00011124631152609546
3296.42,6.653798851335296e-05
3292.42,0.0003090755125600281
3288.42,0.0006215909949708713
3284.43,0.0005625262209314301
3280.43,0.00030529784401570753
3276.43,0.0004937983244431982
3272.43,0.0011524462319770813
3268.44,0.0014385051365294402
3264.44,0.0008354424374345769
3260.44,-6.179968191796087e-06
3256.44,-0.0001557690392273263
3252.45,0.00033376418784784173
3248.45,0.0006628562692325805
3244.45,0.0005067856828752451
3240.45,0.00033280264775492965
3236.46,0.0005379435257376261
3232.46,0.0008739665295927311
3228.46,0.0008326700052393617
3224.46,0.00023882868357204962
3220.47,-0.0006327858167278037
3216.47,-0.0013209291009356472
3212.47,-0.0015217710679059047
3208.47,-0.0013295612670366774
3204.47,-0.0011282790240350962
3200.48,-0.0011277576517779615
3196.48,-0.0011386934863277381
3192.48,-0.000896414463088583
3188.48,-0.0004572555087242365
3184.49,-7.216084788758473e-05
3180.49,0.00018368700937227214
3176.49,0.00035850138153418337
3172.49,0.0003784200247179022
3168.5,0.00017295608263214607
3164.5,-7.375778448033554e-05
3160.5,-8.14148663176445e-05
3156.5,0.0001449298967093407
3152.51,0.0003395346050919616
3148.51,0.00029435928979116427
3144.51,-1.6693146143328258e-05
3140.51,-0.0004936763919591303
3136.52,-0.0008855971915838583
3132.52,-0.0008245367404915681
3128.52,-0.00023096822006394777
3124.52,0.00037792638828052644
3120.53,0.0004019420938196211
3116.53,-0.0001024096688733607
3112.53,-0.0005604059799941725
3108.53,-0.0006608610580467952
3104.53,-0.0006040696459727914
3100.54,-0.0005703082868510553
3096.54,-0.0004411967610636579
3092.54,-0.00021487688366983795
3088.54,-0.00019053051663886836
3084.55,-0.0004992696325610314
3080.55,-0.0008438094566793584
3076.55,-0.0009347858089102656
3072.55,-0.0009095023885307557
3068.56,-0.0010024543875142532
3064.56,-0.0010809654887599107
3060.56,-0.0008683288646074774
3056.56,-0.0004309474727236945
3052.57,-6.649219706978543e-05
3048.57,0.00014256687227536674
3044.57,0.00031124625335348516
3040.57,0.000403278811369423
3036.58,0.00022973729817788585
3032.58,-0.0002368904233761293
3028.58,-0.0008236444716312324
3024.58,-0.0014221739449149645
3020.58,-0.0020037500614453196
3016.59,-0.0023590485173178716
3012.59,-0.002248317556832677
3008.59,-0.0018047990553226728
3004.59,-0.0013646605990462676
3000.6,-0.0010384632653833471
2996.6,-0.0006970725024197065
2992.6,-0.00032008642686087024
2988.6,-0.00011429982535000882
2984.61,-0.00020220384243571643
2980.61,-0.0004184180541531579
2976.61,-0.0005327916402970666
2972.61,-0.0005171443237365035
2968.62,-0.0004855400266648921
2964.62,-0.0005119984874720172
2960.62,-0.0005978995676946368
2956.62,-0.0006981419863181827
2952.63,-0.0007213126356035195
2948.63,-0.000601719284309972
2944.63,-0.00040255694236773776
2940.63,-0.0002528742705737892
2936.63,-0.00019416229185859404
2932.64,-0.00020173277408299176
2928.64,-0.0003322261764715402
2924.64,-0.0006651370630115505
2920.64,-0.0010481226960342427
2916.65,-0.0011912868142104974
2912.65,-0.0010853488946203603
2908.65,-0.0009644086974944198
2904.65,-0.0008723364252938362
2900.66,-0.0006174632506590737
2896.66,-0.0001814314370538958
2892.66,0.00013862297735007904
2888.66,0.0001496923934195208
2884.67,5.716866981349267e-05
2880.67,0.00012589307770679257
2876.67,0.0002659187870523612
2872.67,0.00022381100441027334
2868.68,2.675252823471433e-05
2864.68,-7.514470531198164e-05
2860.68,-4.817733435695179e-05
2856.68,-0.00011856448771511811
2852.68,-0.0003758072752489527
2848.69,-0.0006263249177536033
2844.69,-0.0007287959843783418
2840.69,-0.0007629097083738864
2836.69,-0.0007627122824092301
2832.7,-0.0005981951887575818
2828.7,-0.0002463021001584383
2824.7,3.970009989380085e-05
2820.7,1.2739925390500666e-05
2816.71,-0.00022793450363283157
2812.71,-0.00036533500656055554
2808.71,-0.0002681251606411932
2804.71,-0.00010038419332153003
2800.72,-6.193127418083026e-05
2796.72,-0.00015972577611039328
2792.72,-0.00025925108782082727
2788.72,-0.0002519207284981846
2784.73,-0.0001290704188466798
2780.73,4.8573783186475414e-05
2776.73,0.0002164188766298784
2772.73,0.00034426069391046456
2768.74,0.00042615440102170693
2764.74,0.0004526330300676767
2760.74,0.0004272827905458347
2756.74,0.0004040256746368955
2752.74,0.0004408085187886735
2748.75,0.0005023513179807397
2744.75,0.0004712492170821361
2740.75,0.0003042506716575098
2736.75,0.00011628804580509407
2732.76,4.646449946404778e-05
2728.76,9.668852685544137e-05
2724.76,0.0001645541901105609
2720.76,0.00018824515011359524
2716.77,0.00017509655002054259
2712.77,0.0001143584129629626
2708.77,-3.691225097773691e-05
2704.77,-0.00025693764268476093
2700.78,-0.0004354583217418533
2696.78,-0.0004730317877249682
2692.78,-0.0003626792238640205
2688.78,-0.000172415673979809
2684.79,1.5986997083826913e-05
2680.79,0.0001292295555190984
2676.79,0.00012725830251671556
2672.79,6.065275011543376e-05
2668.79,4.466789924820712e-05
2664.8,0.00013118754131453362
2660.8,0.00024579568632839693
2656.8,0.00029289740001834253
2652.8,0.00029859941784323406
2648.81,0.0003824435603487662
2644.81,0.0005741088327668011
2640.81,0.00072135810756242
2636.81,0.0006562455862921387
2632.82,0.00039771248568019977
2628.82,0.00011492428569825387
2624.82,-5.8424772053995017e-05
2620.82,-7.073312414838419e-05
2616.83,0.00012638118582971973
2612.83,0.0004991405876827813
2608.83,0.0008237383236269647
2604.83,0.0008567093329367084
2600.84,0.0006189020295497682
2596.84,0.0004146387876898326
2592.84,0.0004519114474881795
2588.84,0.0005904707633986308
2584.84,0.0005683578054803107
2580.85,0.0003026301063386587
2576.85,-6.101338981231042e-05
2572.85,-0.000365651535749017
2568.85,-0.0005481729865657178
2564.86,-0.0005783239663335409
2560.86,-0.00039096379458083193
2556.86,5.925183727306313e-05
2552.86,0.0006288741222119742
2548.87,0.0008605145200731835
2544.87,0.00030299966579814836
2540.87,-0.0009463111136777625
2536.87,-0.0021880258582195524
2532.88,-0.002782749483871659
2528.88,-0.0027904597183174926
2524.88,-0.0026421097719563913
2520.88,-0.0023633634608709033
2516.89,-0.00165931753382165
2512.89,-0.0005920821740568287
2508.89,0.00046748085587782883
2504.89,0.0011868004066211474
2500.89,0.0014467688633573964
2496.9,0.0012088763303969735
2492.9,0.00042741080875956174
2488.9,-0.0005088172777730046
2484.9,-0.0008927148329101239
2480.91,-0.0005461857413696777
2476.91,-1.866082659182362e-05
2472.91,0.00014998021115932535
2468.91,-5.210243511126998e-05
2464.92,-0.00035548932651786706
2460.92,-0.0005547090580382604
2456.92,-0.000465235650855279
2452.92,5.7122499358686074e-05
2448.93,0.0007136378640271446
2444.93,0.0008643205679786121
2440.93,0.0004374696191424797
2436.93,0.0001755427055904913
2432.94,0.000543984085764811
2428.94,0.0009510589707127674
2424.94,0.0007601018339389067
2420.94,0.0002498433930397913
2416.95,-5.674957177933225e-05
2412.95,-0.00027565364431001403
2408.95,-0.0007679038796616754
2404.95,-0.0012665074367713483
2400.95,-0.001125380992623274
2396.96,-0.00030831291539746425
2392.96,0.0005626937954597306
2388.96,0.0009905820674254362
2384.96,0.000976877721436488
2380.97,0.000670598561418702
2376.97,0.0001424227857476871
2372.97,-0.0004116389864996907
2368.97,-0.0006078369791280222
2364.98,-0.00027940976975567846
2360.98,0.0002654266035430259
2356.98,0.0006409075627806168
2352.98,0.0007890377876918404
2348.99,0.0007682848941727789
2344.99,0.0005594630999711696
2340.99,0.00021245957117393835
2336.99,-5.371177935871614e-05
2333.0,-0.00011367007922434037
2329.0,-0.00010208136965625392
2325.0,-0.0001474570461779661
2321.0,-0.00015759393972877324
2317.0,1.642911099610986e-05
2313.01,0.0002049124913291975
2309.01,2.060483402296898e-05
2305.01,-0.0005369012090166666
2301.01,-0.0009835931212135648
2297.02,-0.0008398622556696714
2293.02,-0.00012373383996234187
2289.02,0.0007065359323814319
2285.02,0.001293362526675169
2281.03,0.001724529804016656
2277.03,0.002256596364164562
2273.03,0.002959047030577722
2269.03,0.003701706776759281
2265.04,0.0038889401799272775
2261.04,0.0028761396258090103
2257.04,0.0008517481224584109
2253.04,-0.000980260322107268
2249.05,-0.0005770990188611602
2245.05,0.003048789680734719
2241.05,0.006805154429640043
2237.05,0.007896541765300934
2233.05,0.005638238016386493
2229.06,0.0025385607659059173
2225.06,0.0013747623600876419
2221.06,-0.0005796463107132985
2217.06,-0.005656153714890276
2213.07,-0.011825732096787667
2209.07,-0.015284135656250912
2205.07,-0.014678250192728226
2201.07,-0.01310049553770179
2197.08,-0.011882274401388976
2193.08,-0.011827111068347107
2189.08,-0.010972198395465132
2185.08,-0.006559594397906387
2181.09,-0.0022185764689161384
2177.09,-0.0007358006984641841
2173.09,-0.0015401422204354264
2169.09,-0.003264488293294187
2165.1,-0.005100649830091154
2161.1,-0.006061110331419213
2157.1,-0.004002530962523496
2153.1,0.00019980412282225024
2149.11,-0.0002597347834824987
2145.11,-0.007721319512539307
2141.11,-0.013604590954323901
2137.11,-0.012179842552529983
2133.11,-0.006039227928399886
2129.12,-0.0010272708373633734
2125.12,0.0024767345786879287
2121.12,0.004834366468331599
2117.12,0.0054906902869586265
2113.13,0.005249242611015892
2109.13,0.005951084387637709
2105.13,0.00663678938789037
2101.13,0.004861079024934135
2097.14,0.001276172960492223
2093.14,-0.0013994796495370443
2089.14,-0.0012417287029046348
2085.14,0.0012887336255085011
2081.15,0.0035560421468589835
2077.15,0.004071534655186079
2073.15,0.00225388210771766
2069.15,-0.0004978890145632825
2065.16,-0.0030961796037883363
2061.16,-0.0058902629967701944
2057.16,-0.008109062332709954
2053.16,-0.007698790240670588
2049.16,-0.0025977657533151344
2045.17,0.008440118948762218
2041.17,0.01813370647684505
2037.17,0.021076037770553557
2033.17,0.017111117583983218
2029.18,0.004481260600333339
2025.18,-0.011224070096232667
2021.18,-0.016962783940568403
2017.18,-0.016398799516158698
2013.19,-0.012017473421571653
2009.19,-0.0024062329739926863
2005.19,0.004954359418544961
2001.19,0.00793648430019836
1997.2,0.007282585573259344
1993.2,0.005331033810088939
1989.2,0.0068851982740702825
1985.2,0.011970711908373477
1981.21,0.015540017986328328
1977.21,0.017884329365394868
1973.21,0.019300567194102076
1969.21,0.018757035535159373
1965.21,0.018525690102079398
1961.22,0.010450357559220441
1957.22,0.0019533583051742475
1953.22,0.0018766712068613127
1949.22,0.0060203937995597645
1945.23,0.010722735097653174
1941.23,0.01135267199497456
1937.23,0.009707099885766901
1933.23,0.008745091975685522
1929.24,0.006576752266718066
1925.24,0.003745563074500682
1921.24,0.002646568662416263
1917.24,0.002990250609626228
1913.25,0.0033868040090618626
1909.25,0.0029881534008499126
1905.25,0.0024017985243425977
1901.25,0.002109259729716144
1897.26,0.0016726952244937136
1893.26,0.000855597559368104
1889.26,0.00023605741997686407
1885.26,0.00011027622132433329
1881.26,0.00018231941867993817
1877.27,6.816584871440629e-05
1873.27,-0.0002643936179894937
1869.27,-0.0006138069708682376
1865.27,-0.000787605841942243
1861.28,-0.0007399882018170455
1857.28,-0.0006409238946709854
1853.28,-0.0007056813700260727
1849.28,-0.0009739198422972507
1845.29,-0.0011352294354394572
1841.29,-0.0009329651989139079
1837.29,-0.0005431264214946376
1833.29,-0.00030778641742392366
1829.3,-0.0003211168904006937
1825.3,-0.00033809962549616085
1821.3,-0.00020771480591234436
1817.3,-8.415357065770686e-05
1813.31,-0.00013394629683514394
1809.31,-0.0002791466276854094
1805.31,-0.0003643513982268705
1801.31,-0.0003533570122050498
1797.32,-0.000314751139139105
1793.32,-0.0002871295599528034
1789.32,-0.00024200485388314787
1785.32,-0.00016840324546097546
1781.32,-8.669976306922497e-05
1777.33,2.3004436280338325e-06
1773.33,0.00010263388381359564
1769.33,0.00015812231821791395
1765.33,0.00010596088950500307
1761.34,-1.2967593001126515e-05
1757.34,-0.00010551016379570233
1753.34,-0.0001256879905372401
1749.34,-0.0001362266203179703
1745.35,-0.0002500638108605697
1741.35,-0.0004937262601757923
1737.35,-0.0007403631819923318
1733.35,-0.0007985489402362895
1729.36,-0.0006881222567858628
1725.36,-0.0005843189004285029
1721.36,-0.0005856624439104577
1717.36,-0.0006439959902241991
1713.37,-0.000641324526536733
1709.37,-0.0005549002399345415
1705.37,-0.0004349987608011051
1701.37,-0.00033234644153542353
1697.37,-0.0002759255121711872
1693.38,-0.000260203580196728
1689.38,-0.0002630003956222045
1685.38,-0.0002605760555736518
1681.38,-0.0002597059871420927
1677.39,-0.000321328045387103
1673.39,-0.0004931065284250781
1669.39,-0.0007161219166376999
1665.39,-0.0008700710743724492
1661.4,-0.0009209599062628276
1657.4,-0.0009107083091731416
1653.4,-0.0008584054598254308
1649.4,-0.0007614212090437215
1645.41,-0.0006633055577629082
1641.41,-0.0006137715026997732
1637.41,-0.000605011302393172
1633.41,-0.0005800787472498049
1629.42,-0.0005058389914190387
1625.42,-0.0004176275968732768
1621.42,-0.0003813707324812031
1617.42,-0.00044033325905272827
1613.42,-0.000576288367608431
1609.43,-0.0007201720993009614
1605.43,-0.0007944200590163132
1601.43,-0.000765401850979102
1597.43,-0.0006768441445844514
1593.44,-0.0005989646441745093
1589.44,-0.0005454267087337747
1585.44,-0.0004945644449740015
1581.44,-0.0004781503039163887
1577.45,-0.0005655493860160475
1573.45,-0.0007260741174371678
1569.45,-0.0008134863503910517
1565.45,-0.0007406988171873817
1561.46,-0.0005719237240642168
1557.46,-0.0004886849420020142
1553.46,-0.0005722979597197302
1549.46,-0.0007383780052926218
1545.47,-0.000912805018577878
1541.47,-0.0010237048484760952
1537.47,-0.0010115285216438508
1533.47,-0.0009423361582710787
1529.47,-0.0008980888628851991
1525.48,-0.0008724705501671273
1521.48,-0.0008038517467186326
1517.48,-0.0006865587834042272
1513.48,-0.0005939460657332987
1509.49,-0.0005831494704223311
1505.49,-0.0006324019688790546
1501.49,-0.000675926972397968
1497.49,-0.0006966986276769199
1493.5,-0.000710695804622092
1489.5,-0.0007170499813330192
1485.5,-0.0007052985981222636
1481.5,-0.000673259772507255
1477.51,-0.0006087923060186934
1473.51,-0.000494180886831036
1469.51,-0.0003580578905614147
1465.51,-0.00026596948683262414
1461.52,-0.00025884618643164103
1457.52,-0.00032719311886014735
1453.52,-0.0004071948358622991
1449.52,-0.0004618860378595678
1445.53,-0.0005214635550597584
1441.53,-0.0006189098974277128
1437.53,-0.0007406122045444281
1433.53,-0.0008411315096948022
1429.53,-0.0008931995236041781
1425.54,-0.0008829052080073785
1421.54,-0.0008019251055201917
1417.54,-0.0006764808785136717
1413.54,-0.0005482241148288755
1409.55,-0.00043008019632281846
1405.55,-0.00032413530406858945
1401.55,-0.0002530927070199633
1397.55,-0.00024242751964600323
1393.56,-0.0002781067490816372
1389.56,-0.00031328858296113607
1385.56,-0.0003226465729974787
1381.56,-0.0003198789850468141
1377.57,-0.00032757408037341687
1373.57,-0.00035036291661286884
1369.57,-0.0003756688926469798
1365.57,-0.00039007689836993015
1361.58,-0.0003921553069189936
1357.58,-0.00039538527646281255
1353.58,-0.0004143810990610095
1349.58,-0.00044498943464165754
1345.58,-0.00046421585096965284
1341.59,-0.00045688435148217785
1337.59,-0.000441430991104292
1333.59,-0.0004517133032645865
1329.59,-0.0004959084795040473
1325.6,-0.0005479299756677158
1321.6,-0.0005722358077291413
1317.6,-0.0005535207022723428
1313.6,-0.0005110338620957847
1309.61,-0.0004865064273674273
1305.61,-0.0005068923595059303
1301.61,-0.0005570273803704243
1297.61,-0.0005963188900854413
1293.62,-0.0006040084358147485
1289.62,-0.0005990851927782023
1285.62,-0.0006116777304950652
1281.62,-0.0006543823051977059
1277.63,-0.0007261635455447953
1273.63,-0.000820070744270554
1269.63,-0.0009162786863298883
1265.63,-0.0009904745349016766
1261.63,-0.0010478735574176792
1257.64,-0.001123024950124514
1253.64,-0.0012293761809141282
1249.64,-0.0013506741650358284
1245.64,-0.0014995724189607318
1241.65,-0.001753959506102673
1237.65,-0.002241870485259978
1233.65,-0.0031627716723169053
1229.65,-0.004860859016156127
1225.66,-0.007813054775781869
1221.66,-0.012280657788339311
1217.66,-0.016740450261564455
1213.66,-0.01635426060322287
1209.67,-0.01163709678019953
1205.67,-0.007291948384193059
1201.67,-0.0045196046104102605
1197.67,-0.0029872368496873802
1193.68,-0.0021855920596545036
1189.68,-0.001763059300368755
1185.68,-0.0015451387317081955
1181.68,-0.0014240378715668356
1177.68,-0.0013131145196634136
1173.69,-0.0011891373442962302
1169.69,-0.0010882559533546
1165.69,-0.0010359318998250377
1161.69,-0.0010135896650824358
1157.7,-0.0009910433949633576
1153.7,-0.0009539594144691924
1149.7,-0.0009006172738402277
1145.7,-0.0008462971384599893
1141.71,-0.0008270975907310046
1137.71,-0.0008665615889425701
1133.71,-0.0009374064054409256
1129.71,-0.0009832052140351447
1125.72,-0.0009800939837690606
1121.72,-0.0009500658424921246
1117.72,-0.0009163076361394379
1113.72,-0.0008775719115150793
1109.73,-0.00083070845634408
1105.73,-0.0007898243009525976
1101.73,-0.0007718345117140521
1097.73,-0.00078097590732569
1093.74,-0.000813245324327555
1089.74,-0.0008593519911454656
1085.74,-0.0008989504605503643
1081.74,-0.0009086537962141178
1077.74,-0.0008815447047983357
1073.75,-0.0008327191171914675
1069.75,-0.0007877320190192577
1065.75,-0.0007684627501039626
1061.75,-0.0007783016328192782
1057.76,-0.0007963655242599656
1053.76,-0.0007963492490880852
1049.76,-0.000780324436966285
1045.76,-0.0007798388312024417
1041.77,-0.0008102345995779879
1037.77,-0.0008403905363666662
1033.77,-0.0008288187327978383
1029.77,-0.0007761364202001041
1025.78,-0.0007148941566258969
1021.78,-0.0006613936211113183
1017.78,-0.0006046196167473275
1013.78,-0.0005369144714901658
1009.79,-0.00047090556304391074
1005.79,-0.0004259481866985271
1001.79,-0.0004195004029236768
997.79,-0.0004644179055887272
993.79,-0.0005488828942580466
989.8,-0.0006225258094961113
985.8,-0.0006315105805847696
981.8,-0.0005752199869493851
977.8,-0.0005076733443489592
973.81,-0.00048073719282849814
969.81,-0.0005026312411430811
965.81,-0.0005490177549221688
961.81,-0.0005836143538644444
957.82,-0.0005718022592628019
953.82,-0.0005139364375353166
949.82,-0.00046706639279149587
945.82,-0.0005023442356446722
941.83,-0.0006362624843082032
937.83,-0.0008312066166423424
933.83,-0.001054754738686721
929.83,-0.0012720612136411097
925.84,-0.0013683738044193289
921.84,-0.001205948324870032
917.84,-0.0008177558269073654
913.84,-0.0004315238320759286
909.84,-0.00025208022616024853
905.85,-0.0002381693423676827
901.85,-0.00018610230551184548
897.85,-3.2529768160649564e-05
893.85,5.2112643464496955e-05
889.86,-9.232586963382403e-05
885.86,-0.00040083449954708347
881.86,-0.0006977142435207074
877.86,-0.0008777991906695932
873.87,-0.0008990241076506384
869.87,-0.0006934341202403035
865.87,-0.00023518775125663458
861.87,0.00028945941070658565
857.88,0.0006079687501891438
853.88,0.0006911325887188902
849.88,0.0007002814660114626
845.88,0.0006605144768840679
841.89,0.0004998671537148405
837.89,0.0003442788504371824
833.89,0.0004021950361258325
829.89,0.0005436024276533336
825.89,0.00021493889033166041
821.9,-0.0008286591765241727
817.9,-0.0019332322805334506
813.9,-0.0024686447576955373
809.9,-0.002860768430152566
805.91,-0.003832858589575258
801.91,-0.005247943113404263
797.91,-0.005998041558917394
793.91,-0.006629557347063303
789.92,-0.009751025253319945
785.92,-0.015342186835126004
781.92,-0.017456031004307038
777.92,-0.011526360152083415
773.93,-8.987903144697107e-05
769.93,0.028139528860224416
765.93,0.06966822621236135
761.93,0.04333357154320017
757.94,0.03405281379841263
753.94,-0.0032495618091490375
749.94,-0.0030745679126915615
745.94,0.03199375362296897
741.95,-0.008527992722310196
737.95,-0.009179803268594466
733.95,0.009462983037017092
729.95,-0.029565451313411262
725.95,0.02054153261948649
721.96,0.0194092818287116
717.96,0.019611801913639426
713.96,0.005103304144507548
709.96,-0.03782399840700196
705.97,-0.026798212920041642
701.97,-0.045501084080039444
697.97,-0.09432519384971572
693.97,-0.06471573435664252
689.98,-0.04764503844662628
685.98,-0.030154011287896354
681.98,0.06986758794223763
677.98,0.07860474486821015
673.99,-0.001356503659485253
669.99,0.08279817754501306
665.99,0.1310883034026652
661.99,0.05298407665222751
658.0,-0.009794762897903098
654.0,-0.04512937436595528
650.0,-0.08387181661755598
