wavenumber,transmittance
4000.0,-0.008986238357334343
3996.0,-0.009626734145075456
3992.0,-0.010303797519242007
3988.01,-0.01202732184299734
3984.01,-0.013292612789036247
3980.01,-0.012258362098881849
3976.01,-0.009652869704420215
3972.02,-0.00723220605958984
3968.02,-0.005238398744773773
3964.02,-0.003441679496770404
3960.02,-0.0029924136744214607
3956.03,-0.004928502555647957
3952.03,-0.007843802737518885
3948.03,-0.009358887038058285
3944.03,-0.009624582184654024
3940.04,-0.01036831683632403
3936.04,-0.011790535947836205
3932.04,-0.01310380938851037
3928.04,-0.014660934724611429
3924.05,-0.016721307608553948
3920.05,-0.017499529679042062
3916.05,-0.01619327470760551
3912.05,-0.016172763285592036
3908.05,-0.020799670422821343
3904.06,-0.027523302172806408
3900.06,-0.029366453615080383
3896.06,-0.02562274260890689
3892.06,-0.02295011265836548
3888.07,-0.02465442294895054
3884.07,-0.027391359813610117
3880.07,-0.027991285289228982
3876.07,-0.028258551013486836
3872.08,-0.030024980417383385
3868.08,-0.03103739639731989
3864.08,-0.02919157176535051
3860.08,-0.02651723632985938
3856.09,-0.025685481970370478
3852.09,-0.0266517305379049
3848.09,-0.028483982597059483
3844.09,-0.03133067092406563
3840.1,-0.03409214489935969
3836.1,-0.033807600237454695
3832.1,-0.031084359031204774
3828.1,-0.030615090865411986
3824.11,-0.03293364252555009
3820.11,-0.032591591774147326
3816.11,-0.02664658320319377
3812.11,-0.021094396099447812
3808.11,-0.020815593514198687
3804.12,-0.022212347560665917
3800.12,-0.018828954169648474
3796.12,-0.012364513950304166
3792.12,-0.00975375045453431
3788.13,-0.01225896527315508
3784.13,-0.01581952695575137
3780.13,-0.017155341711547544
3776.13,-0.017210743477519372
3772.14,-0.01794650293439071
3768.14,-0.019379052753188998
3764.14,-0.021393895191680213
3760.14,-0.025423304194086727
3756.15,-0.03262985442422184
3752.15,-0.04188157323218453
3748.15,-0.049955045802863994
3744.15,-0.054328466469846605
3740.16,-0.054624914978167544
3736.16,-0.05107666275685586
3732.16,-0.04502641721866876
3728.16,-0.03915132681325193
3724.16,-0.03535858415463633
3720.17,-0.03407833396205728
3716.17,-0.03455057376738576
3712.17,-0.03393481065835057
3708.17,-0.028657714838532074
3704.18,-0.020272986661782268
3700.18,-0.01559944548124308
3696.18,-0.01870576258998909
3692.18,-0.025487599000764444
3688.19,-0.02740713322211987
3684.19,-0.023378937255055347
3680.19,-0.020496058173157417
3676.19,-0.021589354518618216
3672.2,-0.020517154726028934
3668.2,-0.013911643144748196
3664.2,-0.009739900159466413
3660.2,-0.015576805931253877
3656.21,-0.030651955396419215
3652.21,-0.044402223446317585
3648.21,-0.043827021824971876
3644.21,-0.03246003059661248
3640.21,-0.023593339386364886
3636.22,-0.0225480234748688
3632.22,-0.026791669239880012
3628.22,-0.030809672714373904
3624.22,-0.03154341863338598
3620.23,-0.030533285097239567
3616.23,-0.02948143900519045
3612.23,-0.02724330032571854
3608.23,-0.02263212010866699
3604.24,-0.017969725261584708
3600.24,-0.016967542565380817
3596.24,-0.02054305876075349
3592.24,-0.025553040937856816
3588.25,-0.02701401130760728
3584.25,-0.023224789390170426
3580.25,-0.017706516158826274
3576.25,-0.015001453314682618
3572.26,-0.016673199018318725
3568.26,-0.020384067076608926
3564.26,-0.021943317602727386
3560.26,-0.020208749322117765
3556.26,-0.017888843195879064
3552.27,-0.01687529293535755
3548.27,-0.01602355062722687
3544.27,-0.013778926643481928
3540.27,-0.011309839544172211
3536.28,-0.010823928133602317
3532.28,-0.011895436292859546
3528.28,-0.011518330581297184
3524.28,-0.00759947153400671
3520.29,-0.0019123399638573627
3516.29,0.0013784476090449391
3512.29,-0.00014536425158801977
3508.29,-0.004719456714783535
3504.3,-0.0074093671017606815
3500.3,-0.004749818961869879
3496.3,0.0011040510902730494
3492.3,0.0044455455596915695
3488.31,0.002155456391907047
3484.31,-0.0033765770222797574
3480.31,-0.0072670424190450535
3476.31,-0.0073673793497592965
3472.32,-0.005594888799028896
3468.32,-0.004745063919504421
3464.32,-0.005991113758462342
3460.32,-0.008741144267615252
3456.32,-0.011558898657342062
3452.33,-0.013238884463854182
3448.33,-0.01347535311338814
3444.33,-0.012615287700649336
3440.33,-0.010496592171945655
3436.34,-0.0069472380714532414
3432.34,-0.0033420578663433415
3428.34,-0.0020073387159988357
3424.34,-0.003517233046979722
3420.35,-0.0055999575112873744
3416.35,-0.005615874966891372
3412.35,-0.0033242903413191176
3408.35,-0.0004507273625010931
3404.36,0.0013290678073932683
3400.36,0.0010911891481282156
3396.36,-0.001380911932393333
3392.36,-0.004995781864555286
3388.37,-0.007536165446524245
3384.37,-0.007774951009651837
3380.37,-0.0068217205484599796
3376.37,-0.00639016622074391
3372.37,-0.006826257007073578
3368.38,-0.007729538881690087
3364.38,-0.009007960960700622
3360.38,-0.009915605523850637
3356.38,-0.008731075315434125
3352.39,-0.005176840797410697
3348.39,-0.0019114882894323386
3344.39,-0.001491974813746265
3340.39,-0.003139460716331475
3336.4,-0.0042895273539798814
3332.4,-0.004275290178361039
3328.4,-0.004565746103457911
3324.4,-0.005966862622937401
3320.41,-0.007879230457734058
3316.41,-0.009849471589972751
3312.41,-0.011605933270773664
3308.41,-0.011759697500974182
3304.42,-0.009220274132647612
3300.42,-0.005999533051342487
3296.42,-0.005680556161959277
3292.42,-0.008785541848793968
3288.42,-0.012063544645671132
3284.43,-0.01304135440610873
3280.43,-0.01300734432436117
3276.43,-0.013976271944661493
3272.43,-0.015432261830532921
3268.44,-0.015971572281395452
3264.44,-0.016033405820041684
3260.44,-0.016709779972980756
3256.44,-0.017249771651815772
3252.45,-0.01615892495713551
3248.45,-0.014034846385576245
3244.45,-0.012983924982385937
3240.45,-0.013545212324464016
3236.46,-0.014061018894331707
3232.46,-0.013140200298090148
3228.46,-0.011348902659537176
3224.46,-0.010189170420218666
3220.47,-0.010308673336228346
3216.47,-0.011125332600332986
3212.47,-0.011758621735267195
3208.47,-0.01207237431236828
3204.47,-0.012713380047819533
3200.48,-0.013922522380566828
3196.48,-0.014629923942128045
3192.48,-0.013566232596640762
3188.48,-0.01127925793651153
3184.49,-0.009864235620162734
3180.49,-0.010335348394798173
3176.49,-0.01142929878970465
3172.49,-0.011560574656335051
3168.5,-0.010878466291748327
3164.5,-0.010401620837884575
3160.5,-0.010166097302675826
3156.5,-0.00956910218535055
3152.51,-0.008923053161597774
3148.51,-0.009166759550875384
3144.51,-0.010321014447858759
3140.51,-0.01144322195652088
3136.52,-0.012175385974118604
3132.52,-0.013215594512916595
3128.52,-0.014857833345064395
3124.52,-0.016045004715738033
3120.53,-0.015570537010902132
3116.53,-0.013769391674484903
3112.53,-0.012331714081306438
3108.53,-0.012425240058743228
3104.53,-0.013434165391708584
3100.54,-0.01382286569396039
3096.54,-0.012986060554648337
3092.54,-0.011736821224180561
3088.54,-0.010899015565423829
3084.55,-0.010218028957247934
3080.55,-0.009070415803847931
3076.55,-0.007745469077854766
3072.55,-0.0071640278276471625
3068.56,-0.007474509076007784
3064.56,-0.007878388036628974
3060.56,-0.007972699158160866
3056.56,-0.008400830989098603
3052.57,-0.009845395354046552
3048.57,-0.012128906323526312
3044.57,-0.014639453256853792
3040.57,-0.016920580006836
3036.58,-0.018299218183222284
3032.58,-0.017662438602481886
3028.58,-0.014611386197048284
3024.58,-0.010685406984639462
3020.58,-0.00855096846105445
3016.59,-0.009549088891342247
3012.59,-0.012469615273126476
3008.59,-0.01504469343757868
3004.59,-0.01594088119024506
3000.6,-0.015453796680845462
2996.6,-0.014917936807841547
2992.6,-0.015413684729262692
2988.6,-0.016914388135372046
2984.61,-0.0187336581673593
2980.61,-0.020477301652846093
2976.61,-0.022101478738445535
2972.61,-0.023259551988200795
2968.62,-0.023287165330579153
2964.62,-0.022113094464730115
2960.62,-0.020522423655365222
2956.62,-0.019198239833436555
2952.63,-0.01812054062984019
2948.63,-0.017136753495339052
2944.63,-0.01637388892128412
2940.63,-0.015769218244057387
2936.63,-0.014902910095320441
2932.64,-0.013729967433924482
2928.64,-0.012799342519032364
2924.64,-0.01235604200224176
2920.64,-0.011860391469979841
2916.65,-0.010981512753323524
2912.65,-0.010359649955785304
2908.65,-0.010616627177590763
2904.65,-0.011476352272183868
2900.66,-0.012281564820422343
2896.66,-0.012689119647268978
2892.66,-0.012679045240463656
2888.66,-0.012350792497113176
2884.67,-0.012000095985225438
2880.67,-0.011986415390185577
2876.67,-0.01221387264978433
2872.67,-0.012169971339775463
2868.68,-0.011681001454343292
2864.68,-0.011110889851187113
2860.68,-0.010557248554458222
2856.68,-0.009564033072177288
2852.68,-0.008061563382795671
2848.69,-0.006927065838384334
2844.69,-0.006918162659682241
2840.69,-0.007722011232779869
2836.69,-0.008734898849859498
2832.7,-0.00986045421665591
2828.7,-0.010994620960584189
2824.7,-0.01158872095640666
2820.7,-0.011468085976178646
2816.71,-0.011351614926052557
2812.71,-0.011740581862532165
2808.71,-0.011901955541680897
2804.71,-0.011003789335817294
2800.72,-0.009712753523441031
2796.72,-0.009391246476393767
2792.72,-0.010088942822659527
2788.72,-0.010564529492174445
2784.73,-0.01024089141425855
2780.73,-0.009837833366111706
2776.73,-0.009816867007353854
2772.73,-0.009505634989673148
2768.74,-0.008376726789121063
2764.74,-0.007190983391633439
2760.74,-0.007073903156647336
2756.74,-0.00803319157105656
2752.74,-0.009049088723757114
2748.75,-0.009351264566158422
2744.75,-0.009035105342774883
2740.75,-0.008631037807841462
2736.75,-0.008525746099048326
2732.76,-0.008752972530916942
2728.76,-0.009068423294357275
2724.76,-0.009208575002825979
2720.76,-0.009155815948213217
2716.77,-0.009035544907366772
2712.77,-0.008820654960622506
2708.77,-0.008418135202844427
2704.77,-0.00803258025438172
2700.78,-0.008052080911828928
2696.78,-0.008450415112307217
2692.78,-0.00871305151656461
2688.78,-0.008559161821259905
2684.79,-0.008380209842950612
2680.79,-0.008638015292685985
2676.79,-0.009105132922229272
2672.79,-0.009102104869161352
2668.79,-0.008358464494774905
2664.8,-0.0073255275197391025
2660.8,-0.006645186044494041
2656.8,-0.006529164257465607
2652.8,-0.00667089012309092
2648.81,-0.00659299416492287
2644.81,-0.0061411455520825305
2640.81,-0.005702076811109103
2636.81,-0.00587052701038547
2632.82,-0.006768083759313944
2628.82,-0.0076799437408198775
2624.82,-0.007576109558576732
2620.82,-0.0060817393510744664
2616.83,-0.0038392379341652873
2612.83,-0.00203547235880044
2608.83,-0.0015397960581495897
2604.83,-0.0026548600255739555
2600.84,-0.0055887710417503855
2596.84,-0.010249607077428575
2592.84,-0.015155302359723873
2588.84,-0.017465811679319737
2584.84,-0.015532052341352246
2580.85,-0.011505883574551925
2576.85,-0.009188337096561718
2572.85,-0.009603729526338332
2568.85,-0.010261034179639845
2564.86,-0.008956279975498225
2560.86,-0.0071050928333253405
2556.86,-0.00717991322582368
2552.86,-0.00903244194754639
2548.87,-0.010379788178884193
2544.87,-0.009370368752401435
2540.87,-0.006044370408017474
2536.87,-0.0016346420234864545
2532.88,0.0016748482527436225
2528.88,0.0015192598921149898
2524.88,-0.0029524450236841585
2520.88,-0.009722770745721143
2516.89,-0.01531267334458825
2512.89,-0.018299235897445948
2508.89,-0.019386792307850065
2504.89,-0.018564098803688436
2500.89,-0.015606196957297779
2496.9,-0.012492482139062363
2492.9,-0.011961109908251274
2488.9,-0.014122125306325799
2484.9,-0.01619256952717721
2480.91,-0.01605537192265708
2476.91,-0.01401174567022459
2472.91,-0.010986872968001753
2468.91,-0.0072667065562520205
2464.92,-0.003203503207032223
2460.92,0.00025850310331484473
2456.92,0.0022513169679978535
2452.92,0.0028096707610353027
2448.93,0.0023616709049538286
2444.93,0.0007081724978650339
2440.93,-0.0023704051256369235
2436.93,-0.006076056039662284
2432.94,-0.008932101994716325
2428.94,-0.010046121080670514
2424.94,-0.009531647568488455
2420.94,-0.008343989639236611
2416.95,-0.007490061237967873
2412.95,-0.007378553200349891
2408.95,-0.007560753687121906
2404.95,-0.007178318609160118
2400.95,-0.006206471344026521
2396.96,-0.005594970996151338
2392.96,-0.006261308512021007
2388.96,-0.0077673095047681075
2384.96,-0.008358700157221515
2380.97,-0.00667169005250196
2376.97,-0.0031890036989311336
2372.97,-0.00043666223592092775
2368.97,-0.0006108335980619948
2364.98,-0.002695307086192163
2360.98,-0.003668182301278506
2356.98,-0.002844372083372991
2352.98,-0.0022231536557798305
2348.99,-0.002852292875626435
2344.99,-0.0036141237413611868
2340.99,-0.0026706610110064856
2336.99,0.00025431969412700373
2333.0,0.0033289719556357364
2329.0,0.004781413625425062
2325.0,0.003970127887554556
2321.0,0.0010386833662162267
2317.0,-0.0028443684319406585
2313.01,-0.005409163747943675
2309.01,-0.004969586815260735
2305.01,-0.002161873148121707
2301.01,0.0013529953217521198
2297.02,0.004365507659715595
2293.02,0.005690093377407688
2289.02,0.004735908126766727
2285.02,0.002441407960165185
2281.03,0.0021814641859665453
2277.03,0.007621175845874144
2273.03,0.015380226276514789
2269.03,0.01826749709114893
2265.04,0.011297863959974093
2261.04,-0.004360683093998745
2257.04,-0.021014402339137345
2253.04,-0.032802014198258435
2249.05,-0.029653212409016957
2245.05,-0.010510495864319791
2241.05,0.011964359970008123
2237.05,0.030642419309290264
2233.05,0.042840472686948836
2229.06,0.047190145756778226
2225.06,0.04052102275260966
2221.06,0.0248822854036534
2217.06,0.00929994245832063
2213.07,0.0031185203526392508
2209.07,0.009955618159432564
2205.07,0.021329502553226302
2201.07,0.029443906696217964
2197.08,0.03057155116016602
2193.08,0.028969001560959357
2189.08,0.019190849095818155
2185.08,-0.005014119753119961
2181.09,-0.031468424020480334
2177.09,-0.042619590913702356
2173.09,-0.026062996905833326
2169.09,0.0010267859463497578
2165.1,0.015791369926749125
2161.1,0.028440643074248678
2157.1,0.05351197098687226
2153.1,0.07525710067737494
2149.11,0.06707184254324862
2145.11,0.04269148288852323
2141.11,0.02405586645610552
2137.11,0.012102767540309554
2133.11,0.0033541785255950564
2129.12,0.0006871532048141008
2125.12,0.003062214323815768
2121.12,0.006269944797931101
2117.12,0.0027856614696733844
2113.13,-0.01141230462934797
2109.13,-0.031643216328546504
2105.13,-0.045083081514148055
2101.13,-0.042152074575634454
2097.14,-0.032219415835083254
2093.14,-0.02668853475123556
2089.14,-0.024997985681306147
2085.14,-0.02026666467094177
2081.15,-0.0102927057378785
2077.15,0.005298475301873115
2073.15,0.02512619454048718
2069.15,0.036045336397538714
2065.16,0.028905292436219292
2061.16,0.013622438294860607
2057.16,0.01192634543096905
2053.16,0.017460052187182183
2049.16,0.01788031114647458
2045.17,0.03230949890414218
2041.17,0.06196595644299113
2037.17,0.06851873699751497
2033.17,0.06034676981112287
2029.18,0.031316241748362166
2025.18,-0.008054662364327298
2021.18,-0.012748534340473652
2017.18,-0.0039810049251755054
2013.19,-0.010191150373158675
2009.19,0.004259199638409362
2005.19,0.03469229814801736
2001.19,0.04929501113105789
1997.2,0.050104135538864114
1993.2,0.03090748430500199
1989.2,0.002382067321994745
1985.2,-0.033680480353010814
1981.21,-0.06952769426288301
1977.21,-0.054819408655332205
1973.21,-0.026892250677962394
1969.21,-0.009945074512793455
1965.21,-0.005157194082691606
1961.22,-0.0009725427945718353
1957.22,0.0013949792415341774
1953.22,-0.011723595370329533
1949.22,-0.037115351973527354
1945.23,-0.04743146134496456
1941.23,-0.03590172306627745
1937.23,-0.03037964541398816
1933.23,-0.041952596473004596
1929.24,-0.0497623127392371
1925.24,-0.035836461784160306
1921.24,-0.015984286594003434
1917.24,-0.00555147675607262
1913.25,-0.0030744101669910994
1909.25,-0.004308292342713077
1905.25,-0.009725915222947273
1901.25,-0.01827797226567752
1897.26,-0.022000434191492467
1893.26,-0.016623528984095828
1889.26,-0.009405268821077927
1885.26,-0.005532167801699792
1881.26,-0.004027464004143783
1877.27,-0.004709015412909456
1873.27,-0.009854628575786704
1869.27,-0.017131059264556908
1865.27,-0.018695860415002617
1861.28,-0.013576653938872588
1857.28,-0.010798570702107133
1853.28,-0.01433038545848589
1849.28,-0.01840165978150075
1845.29,-0.01734693211385694
1841.29,-0.015723675374229838
1837.29,-0.018445471642580223
1833.29,-0.022051429205717
1829.3,-0.02088214489871507
1825.3,-0.016711259350264247
1821.3,-0.014336790258705065
1817.3,-0.013994407506844084
1813.31,-0.0140469440216827
1809.31,-0.015381162505021948
1805.31,-0.019194985723086134
1801.31,-0.023552093310616612
1797.32,-0.024934166523856105
1793.32,-0.02305915217208069
1789.32,-0.020442854892158486
1785.32,-0.018921680998253233
1781.32,-0.019598386578122108
1777.33,-0.023072980037090893
1773.33,-0.0273104798110764
1769.33,-0.027886692703295055
1765.33,-0.024724647631834483
1761.34,-0.023440848221854146
1757.34,-0.02723731859937986
1753.34,-0.03284702701237605
1749.34,-0.035207729148662666
1745.35,-0.0357049470142855
1741.35,-0.03810242807129364
1737.35,-0.04003515711426357
1733.35,-0.037004644369550664
1729.36,-0.032767798409231386
1725.36,-0.0333942969349356
1721.36,-0.03809875072394966
1717.36,-0.040611032056077995
1713.37,-0.03969227177953194
1709.37,-0.04117662686230514
1705.37,-0.04679551242658022
1701.37,-0.04998096095244939
1697.37,-0.04612886840577213
1693.38,-0.04119983719176544
1689.38,-0.03986744019836183
1685.38,-0.039661606852037505
1681.38,-0.037386795935324194
1677.39,-0.03421341104395524
1673.39,-0.03154882124528696
1669.39,-0.028343610246614106
1665.39,-0.02535064581116063
1661.4,-0.026254053559303273
1657.4,-0.03266754333686799
1653.4,-0.03939134817067563
1649.4,-0.03867118676065723
1645.41,-0.03273468520005602
1641.41,-0.028088492571542303
1637.41,-0.02601594669607536
1633.41,-0.02485393916259959
1629.42,-0.02426538246289814
1625.42,-0.024758108281064038
1621.42,-0.025162518478322033
1617.42,-0.023571239913400044
1613.42,-0.020178649231988623
1609.43,-0.016584875545604682
1605.43,-0.013660899871441114
1601.43,-0.011655638559982757
1597.43,-0.010602256808022851
1593.44,-0.010104059054967703
1589.44,-0.010050022584785018
1585.44,-0.011545305778587773
1581.44,-0.015563129716494477
1577.45,-0.020670473969422273
1573.45,-0.02436670512887233
1569.45,-0.02753837685489846
1565.45,-0.033096780323737585
1561.46,-0.039415350456055265
1557.46,-0.03994512690411899
1553.46,-0.035888734304137575
1549.46,-0.035955533581145456
1545.47,-0.042494412727391226
1541.47,-0.047495803197725076
1537.47,-0.043684842781194194
1533.47,-0.03878227137774008
1529.47,-0.04064470978853233
1525.48,-0.046937777603568896
1521.48,-0.05038904515861004
1517.48,-0.05029183194747839
1513.48,-0.05075171459390942
1509.49,-0.049556020023109694
1505.49,-0.04221591326080341
1501.49,-0.03276320566872296
1497.49,-0.02726892346987365
1493.5,-0.0247396633418102
1489.5,-0.02094496950078691
1485.5,-0.016582450699113994
1481.5,-0.015885646708159985
1477.51,-0.019216614607081326
1473.51,-0.02178029590101445
1469.51,-0.021015881120427474
1465.51,-0.021207796677069412
1461.52,-0.024878672244396056
1457.52,-0.026566296749888446
1453.52,-0.020905944363859046
1449.52,-0.013011835060702255
1445.53,-0.009562836372124316
1441.53,-0.010852574166513175
1437.53,-0.01276865416537018
1433.53,-0.013002756041575518
1429.53,-0.013414739832465501
1425.54,-0.015079663159377046
1421.54,-0.015672940749222986
1417.54,-0.013242848490407702
1413.54,-0.009853175399943941
1409.55,-0.008805439534545982
1405.55,-0.011173835366502467
1401.55,-0.015291346276765625
1397.55,-0.018065644512292988
1393.56,-0.017552928520475984
1389.56,-0.014846300425679998
1385.56,-0.012583063676450783
1381.56,-0.01195631879575779
1377.57,-0.012061225197053344
1373.57,-0.01167964761186115
1369.57,-0.010760851388297736
1365.57,-0.00953145286120263
1361.58,-0.007451213572113688
1357.58,-0.004539026373356642
1353.58,-0.0025997031829577757
1349.58,-0.003454266232271193
1345.58,-0.006499013895945614
1341.59,-0.008757029458618133
1337.59,-0.008062858083849253
1333.59,-0.005573477205339409
1329.59,-0.003906929170457079
1325.6,-0.004150254366911289
1321.6,-0.005308645980999126
1317.6,-0.005815910700727414
1313.6,-0.005097770397260143
1309.61,-0.003823857836302815
1305.61,-0.0030165290841370276
1301.61,-0.003117961078072072
1297.61,-0.0038156651194201467
1293.62,-0.004529045238515848
1289.62,-0.004927401836783283
1285.62,-0.00496366244136098
1281.62,-0.004708729496884917
1277.63,-0.0044306371078431245
1273.63,-0.004565248409194152
1269.63,-0.0052671913295753575
1265.63,-0.0061111938630791784
1261.63,-0.00652404000458278
1257.64,-0.006429270225739865
1253.64,-0.006076342926618669
1249.64,-0.0054579841740975965
1245.64,-0.004320924588964006
1241.65,-0.0025550980223284364
1237.65,-0.0003221197114378349
1233.65,0.002030343041201199
1229.65,0.004113785615970422
1225.66,0.005917016140310094
1221.66,0.008637550722704779
1217.66,0.014548868117556957
1213.66,0.017697855935377094
1209.67,0.013442435566792532
1205.67,0.008824409153264268
1201.67,0.005557640149869786
1197.67,0.0035194231353035954
1193.68,0.0023549217327511196
1189.68,0.001618536513485952
1185.68,0.00108442465583998
1181.68,0.0007403767191087665
1177.68,0.00044839926666631613
1173.69,-7.397104826115802e-05
1169.69,-0.0008631814839988386
1165.69,-0.0015388027802504811
1161.69,-0.0016503807447435098
1157.7,-0.0010928665052817935
1153.7,-0.00011640496532655531
1149.7,0.0008483589626146829
1145.7,0.0013078087409379088
1141.71,0.0009179321145880784
1137.71,-0.00022103222299911518
1133.71,-0.001451612651444674
1129.71,-0.001843568628613318
1125.72,-0.0007858006054732511
1121.72,0.0015203870911260284
1117.72,0.004118157762928964
1113.72,0.0060442405333453395
1109.73,0.007103384089155545
1105.73,0.007771994071515374
1101.73,0.008448029820998123
1097.73,0.009048165401824706
1093.74,0.009288200220801276
1089.74,0.009033201022241266
1085.74,0.008331035367094855
1081.74,0.007414742591730694
1077.74,0.006763175370864287
1073.75,0.006879586438212685
1069.75,0.007817184046328276
1065.75,0.009091649235287779
1061.75,0.010221962792104626
1057.76,0.011121553365740233
1053.76,0.011854985668314435
1049.76,0.012317814794681112
1045.76,0.012347208769198231
1041.77,0.011965899281766038
1037.77,0.011355886311544286
1033.77,0.010683442409778053
1029.77,0.010020541252604862
1025.78,0.009328312496180304
1021.78,0.008489320014453683
1017.78,0.007541988270783187
1013.78,0.0068504945609631045
1009.79,0.006745095160217214
1005.79,0.006979639943883535
1001.79,0.006923526972309852
997.79,0.006408536503038461
993.79,0.0060069355951451325
989.8,0.006253358985816682
985.8,0.006874880459632412
981.8,0.0070954683449221245
977.8,0.006483292339046988
973.81,0.00523208585874297
969.81,0.0037323106789998537
965.81,0.0019931023216989835
961.81,-0.0006012858978096461
957.82,-0.004859445647106461
953.82,-0.010557554055275923
949.82,-0.015508912112819802
945.82,-0.01670556898030519
941.83,-0.013242870068829172
937.83,-0.007520208376597622
933.83,-0.0028196668977034794
929.83,-0.00044234309612452283
925.84,0.00034592131189453007
921.84,0.0003893159239974006
917.84,-0.00015142327125599805
913.84,-0.0009613784999020249
909.84,-0.001307792911384012
905.85,-0.0008137138955732984
901.85,0.00037212885778235144
897.85,0.0020832847902492874
893.85,0.003872794768964946
889.86,0.004658929466251035
885.86,0.003646661085187925
881.86,0.001621284707022306
877.86,0.00031464226216117164
873.87,0.0003013479656050824
869.87,0.0006180375586764056
865.87,0.000525991800285782
861.87,0.0005032576303834746
857.88,0.0012594562737499211
853.88,0.0029830712022223087
849.88,0.005514127436588256
845.88,0.008090846436415718
841.89,0.009142410493030405
837.89,0.007884307668439845
833.89,0.005668557737343812
829.89,0.0042002749173294315
825.89,0.0029840627845611548
821.9,0.0002599143240306842
817.9,-0.0030193019092090156
813.9,-0.002984922622341568
809.9,0.0013782545677765573
805.91,0.006060443950944308
801.91,0.00690654180980925
797.91,0.004675229370680378
793.91,0.003716139163604165
789.92,0.00630178205566348
785.92,0.008752076953763566
781.92,0.004287895605630976
777.92,-0.004918771734959249
773.93,-0.023954427743478446
769.93,-0.03233915392775444
765.93,0.0023136793282050316
761.93,-0.02757716415595768
757.94,-0.04606792479447641
753.94,0.03267973453750539
749.94,0.06642114782409148
745.94,-0.03682368228462207
741.95,-0.08711239638780388
737.95,-0.16119892758548193
733.95,-0.22721308794206663
729.95,-0.22501965577579863
725.95,-0.26448344104766763
721.96,-0.13086769265487536
717.96,-0.032237748273509115
713.96,-0.011205805442506656
709.96,-0.020026239017955028
705.97,-0.07460389991171312
701.97,-0.19502903196751314
697.97,-0.23311334544394344
693.97,-0.39377658160462903
689.98,-0.3227214688660287
685.98,-0.6260598337923613
681.98,-0.35566952951236247
677.98,-0.18965526172193364
673.99,0.08092285978348546
669.99,0.12129940115399579
665.99,0.07316235150581753
661.99,0.19346584636885056
658.0,0.17484908916206648
654.0,0.18405580165859714
650.0,-0.05810743496565816
