wavenumber,transmittance
4000.0,-0.008601749576664675
3996.0,-0.008833407915716972
3992.0,-0.00933836773566368
3988.01,-0.01117317875233317
3984.01,-0.012590306269665775
3980.01,-0.011531700526910191
3976.01,-0.008822813293440753
3972.02,-0.0064079658654853724
3968.02,-0.004436992088161712
3964.02,-0.002440111379153078
3960.02,-0.0016509119021596384
3956.03,-0.0035031697057277744
3952.03,-0.006724419873483524
3948.03,-0.00851556329704613
3944.03,-0.00861204993906095
3940.04,-0.008923891757794546
3936.04,-0.010106489162665612
3932.04,-0.011445635951999648
3928.04,-0.013030704986877036
3924.05,-0.015094162928705399
3920.05,-0.0161350568075226
3916.05,-0.015407277166918396
3912.05,-0.015949512449354365
3908.05,-0.020870586234773822
3904.06,-0.027589872104925535
3900.06,-0.029154463232178546
3896.06,-0.024928061263826785
3892.06,-0.021822977756932774
3888.07,-0.02347300702957453
3884.07,-0.02652090793332625
3880.07,-0.027296571591004244
3876.07,-0.02726639952771861
3872.08,-0.028547719581988606
3868.08,-0.02937945237747122
3864.08,-0.027623645768325784
3860.08,-0.024896225443251416
3856.09,-0.023785744731494297
3852.09,-0.024573268998138373
3848.09,-0.026472031885357333
3844.09,-0.029422041902968467
3840.1,-0.032216396016040316
3836.1,-0.03199848981393991
3832.1,-0.029416585937434517
3828.1,-0.02900171304819437
3824.11,-0.031207584655480992
3820.11,-0.030713785403820807
3816.11,-0.024715520771843025
3812.11,-0.019178306644232444
3808.11,-0.018952994544961726
3804.12,-0.020515263116940123
3800.12,-0.017352567636413723
3796.12,-0.01095716125462766
3792.12,-0.008306038956160097
3788.13,-0.010913595398211145
3784.13,-0.014785679535232866
3780.13,-0.016362636521415293
3776.13,-0.016305002993156726
3772.14,-0.016725023149999657
3768.14,-0.018083259349874835
3764.14,-0.020452886125902688
3760.14,-0.02493210958361388
3756.15,-0.03213432761372815
3752.15,-0.04057505717938856
3748.15,-0.04734921328445402
3744.15,-0.05089472403048863
3740.16,-0.05135001781909347
3736.16,-0.04853398463723116
3732.16,-0.043053240939182925
3728.16,-0.03728960546721122
3724.16,-0.03337607357692197
3720.17,-0.031917789894570406
3716.17,-0.032134816666958124
3712.17,-0.03136392575519057
3708.17,-0.02637825018691048
3704.18,-0.01852428323160938
3700.18,-0.013948457895701961
3696.18,-0.016535802424849748
3692.18,-0.02286453544421139
3688.19,-0.025140032308941282
3684.19,-0.021835360605221225
3680.19,-0.018945097663746423
3676.19,-0.019184596630375094
3672.2,-0.017681849732236
3668.2,-0.011984088720448722
3664.2,-0.009011367939309574
3660.2,-0.01501353906901998
3656.21,-0.028848131124354835
3652.21,-0.04063679246017192
3648.21,-0.039025637323480473
3644.21,-0.028290444167607086
3640.21,-0.020726314101811295
3636.22,-0.020526928849501372
3632.22,-0.02479051436462134
3628.22,-0.028589382813188118
3624.22,-0.029814750514974103
3620.23,-0.029964281614812453
3616.23,-0.029688954621425977
3612.23,-0.02718057206416248
3608.23,-0.021959051158664658
3604.24,-0.017529011260711134
3600.24,-0.017752498295746547
3596.24,-0.02270081385095666
3592.24,-0.028319892111563306
3588.25,-0.029453366630000685
3584.25,-0.02510391089314252
3580.25,-0.01947922079722827
3576.25,-0.017095928872878585
3572.26,-0.01904956083933703
3568.26,-0.022769938861604527
3564.26,-0.024443643120223468
3560.26,-0.02327238487624037
3556.26,-0.021530134573946397
3552.27,-0.02038919714738234
3548.27,-0.018672781927685553
3544.27,-0.015648279562188307
3540.27,-0.0130690560552985
3536.28,-0.01271496203138192
3532.28,-0.013571606555616289
3528.28,-0.012809487730031415
3524.28,-0.008851899220468508
3520.29,-0.003404630968752105
3516.29,-0.00015509878557399583
3512.29,-0.0014703866017743324
3508.29,-0.005996337488095353
3504.3,-0.008996860259371724
3500.3,-0.006757271193024292
3496.3,-0.0012970834090191216
3492.3,0.0015791822982474616
3488.31,-0.0010868699630248915
3484.31,-0.006586501092958213
3480.31,-0.010153298646151445
3476.31,-0.010078074566245857
3472.32,-0.008344833347179217
3468.32,-0.007417991508699652
3464.32,-0.008416281782533543
3460.32,-0.011090700940141158
3456.32,-0.01405378060569878
3452.33,-0.0156937946053648
3448.33,-0.015535271105644675
3444.33,-0.01429055419049489
3440.33,-0.012040186983304857
3436.34,-0.00827313496430945
3432.34,-0.004047769195810617
3428.34,-0.002025015095983511
3424.34,-0.0033273247178521193
3420.35,-0.00574266758909897
3416.35,-0.006322730403642836
3412.35,-0.004614218214208312
3408.35,-0.0022069966814531397
3404.36,-0.0005514344432135457
3400.36,-0.0005569701155611236
3396.36,-0.002864153341232087
3392.36,-0.00669697187933529
3388.37,-0.009518211225365395
3384.37,-0.009607988437112809
3380.37,-0.00815024938432936
3376.37,-0.0073048349838187214
3372.37,-0.007492184058565108
3368.38,-0.008049129888338478
3364.38,-0.008938693146138045
3360.38,-0.009784018764047425
3356.38,-0.00891819776415804
3352.39,-0.005695091916318033
3348.39,-0.002549988470420742
3344.39,-0.0021451283442841685
3340.39,-0.0037149280486275874
3336.4,-0.0044999592927497545
3332.4,-0.003830329816203284
3328.4,-0.0034645350180216514
3324.4,-0.004352260790622347
3320.41,-0.005760668508716883
3316.41,-0.007272229106800929
3312.41,-0.008940566179536735
3308.41,-0.009496700199136173
3304.42,-0.007495281097519858
3300.42,-0.004609381018990673
3296.42,-0.0045056517900707565
3292.42,-0.007820289154337084
3288.42,-0.011072584690703696
3284.43,-0.011667760449711566
3280.43,-0.011322202396866288
3276.43,-0.01251532780030812
3272.43,-0.014524294035397779
3268.44,-0.015334998090934027
3264.44,-0.015247258240287657
3260.44,-0.015790127969715965
3256.44,-0.01648011326844959
3252.45,-0.015569029800683686
3248.45,-0.013379128839297295
3244.45,-0.012104379690637648
3240.45,-0.012464280673955743
3236.46,-0.012815645031247637
3232.46,-0.011784681446497507
3228.46,-0.010093351456286473
3224.46,-0.009294485397683041
3220.47,-0.00983763651588612
3216.47,-0.010967843020840057
3212.47,-0.011843759177136681
3208.47,-0.012350887203933167
3204.47,-0.0129522794356076
3200.48,-0.013737703843140141
3196.48,-0.01381622566756448
3192.48,-0.012298066335842024
3188.48,-0.009938859149101609
3184.49,-0.00873944712764923
3180.49,-0.009464945530682146
3176.49,-0.010642989549080715
3172.49,-0.010663619046654235
3168.5,-0.009857947063605718
3164.5,-0.009426366105147285
3160.5,-0.009348858930088503
3156.5,-0.008790697249006581
3152.51,-0.007973460005571746
3148.51,-0.007988024682145939
3144.51,-0.009012910267568983
3140.51,-0.010102270909081732
3136.52,-0.010863265577997688
3132.52,-0.011999619897471302
3128.52,-0.01367495105503069
3124.52,-0.014591948891200083
3120.53,-0.013615088366075116
3116.53,-0.011580204410180138
3112.53,-0.010516396516050096
3108.53,-0.011278521806029103
3104.53,-0.012649883706476654
3100.54,-0.012938811790585612
3096.54,-0.011884740125243883
3092.54,-0.010573463296490336
3088.54,-0.00976387926859768
3084.55,-0.009096370256118433
3080.55,-0.007947794902060105
3076.55,-0.006514121701585343
3072.55,-0.005560497425960643
3068.56,-0.005367877532980177
3064.56,-0.005555892908158548
3060.56,-0.005882177300694284
3056.56,-0.006636810204119499
3052.57,-0.00811873843284915
3048.57,-0.010158639339501785
3044.57,-0.012296051192060384
3040.57,-0.014041813697803825
3036.58,-0.014713455363634512
3032.58,-0.013478567908841277
3028.58,-0.010206812358761308
3024.58,-0.006164242889037219
3020.58,-0.003338971977929178
3016.59,-0.0028633982817104636
3012.59,-0.00406096480930726
3008.59,-0.005056768005612208
3004.59,-0.004341464632743444
3000.6,-0.0019015322687014127
2996.6,0.0011222704154584748
2992.6,0.003861835006099268
2988.6,0.0064745699880607785
2984.61,0.009235048760028758
2980.61,0.011445703731237739
2976.61,0.01195493201833029
2972.61,0.010458723802504656
2968.62,0.007776386911850085
2964.62,0.005049087345360269
2960.62,0.0030405153851407046
2956.62,0.0020668685847069143
2952.63,0.0021144523398899384
2948.63,0.002805787988847123
2944.63,0.003676163813279114
2940.63,0.004608288723441139
2936.63,0.005601158831656832
2932.64,0.006173175044670902
2928.64,0.0057198115892275365
2924.64,0.004499366478953267
2920.64,0.0035854980308057845
2916.65,0.0035284025580300526
2912.65,0.0036998501775865125
2908.65,0.0034012070085874986
2904.65,0.0026798151993842993
2900.66,0.0018642001050414338
2896.66,0.0011641229807518617
2892.66,0.0007722684154697901
2888.66,0.0008205293304957284
2884.67,0.0010842652541114585
2880.67,0.0010843589683661031
2876.67,0.0006389069055531098
2872.67,-3.8576481427795434e-05
2868.68,-0.000778976618227064
2864.68,-0.0014911300489018758
2860.68,-0.001722605917631105
2856.68,-0.0008904150676066584
2852.68,0.000741994362920391
2848.69,0.001971586596542639
2844.69,0.002051995961125888
2840.69,0.0014442981416911832
2836.69,0.0007985232176978812
2832.7,0.0002086507855567788
2828.7,-0.00023682405672379586
2824.7,-0.00013833921119616767
2820.7,0.00042621726955741936
2816.71,0.00063566926708865
2812.71,8.883927686560537e-05
2808.71,-0.0004307374994077483
2804.71,-0.00018030969215077942
2800.72,0.00018954975352723433
2796.72,-0.0004428130844305895
2792.72,-0.0019196247290675476
2788.72,-0.003034093653058352
2784.73,-0.0033147206432809634
2780.73,-0.003428063882495015
2776.73,-0.003711673166872733
2772.73,-0.00350115371188223
2768.74,-0.0023738547076008216
2764.74,-0.0011417215465026297
2760.74,-0.0009658718975968962
2756.74,-0.0019732211520562815
2752.74,-0.0032452601859996513
2748.75,-0.0039379101645340584
2744.75,-0.003956282563383102
2740.75,-0.0037082271544027923
2736.75,-0.003571136101628147
2732.76,-0.0036089310776779623
2728.76,-0.0036413465207182577
2724.76,-0.003530562269003174
2720.76,-0.003362791908497435
2716.77,-0.003254422513258695
2712.77,-0.003122988039298608
2708.77,-0.0028613315405398576
2704.77,-0.0026499978278199093
2700.78,-0.002785896890286817
2696.78,-0.0031756296726778693
2692.78,-0.0033538522098473357
2688.78,-0.00311710795439847
2684.79,-0.0028343252876577574
2680.79,-0.0029069740671085016
2676.79,-0.003137388591978287
2672.79,-0.0029227243755437834
2668.79,-0.0020055596398025786
2664.8,-0.00081956746801852
2660.8,-4.559479311055589e-05
2656.8,5.339236199017848e-05
2652.8,-0.00018807929123254748
2648.81,-0.00023673775605122238
2644.81,3.467512014133228e-05
2640.81,0.00022440582071975822
2636.81,-6.928398542104842e-05
2632.82,-0.0006651708075840496
2628.82,-0.0008061660894332703
2624.82,0.0002109948925390539
2620.82,0.00234247019722238
2616.83,0.00460312555798467
2612.83,0.005600673687189542
2608.83,0.004675896030492637
2604.83,0.0022743042239861087
2600.84,-0.001023044434944503
2596.84,-0.005085130834028987
2592.84,-0.009129780391908027
2588.84,-0.01088694314388701
2584.84,-0.008792030161046406
2580.85,-0.004971927839472532
2576.85,-0.003240651513490329
2572.85,-0.00436165386544785
2568.85,-0.005429200625388783
2564.86,-0.0042975253937007915
2560.86,-0.0029073248971533345
2556.86,-0.003920955824500366
2552.86,-0.006662698640422389
2548.87,-0.008320831018983673
2544.87,-0.007204427596428919
2540.87,-0.003711705928469748
2536.87,0.0010004984330780273
2532.88,0.004918381290679711
2528.88,0.0054181523490367065
2524.88,0.0012688543503095468
2520.88,-0.005436863095799625
2516.89,-0.010861428943627627
2512.89,-0.013441502462982102
2508.89,-0.013983742068884693
2504.89,-0.012728347573862125
2500.89,-0.009666372902481643
2496.9,-0.006574887726191583
2492.9,-0.00580268790151042
2488.9,-0.007407528220372399
2484.9,-0.009026102474352812
2480.91,-0.0088502914599198
2476.91,-0.006896922635570035
2472.91,-0.0037472029909207914
2468.91,-7.205223162091122e-05
2464.92,0.0031658283110524085
2460.92,0.005135820754472114
2456.92,0.005748814253972856
2452.92,0.005708253788647142
2448.93,0.005338875806417903
2444.93,0.00406365461024601
2440.93,0.0016793910232814208
2436.93,-0.0011298584972673185
2432.94,-0.0035174263897048003
2428.94,-0.005091858642567166
2424.94,-0.005635423328354612
2420.94,-0.005198495288037139
2416.95,-0.0043184059054372035
2412.95,-0.0036703834221918936
2408.95,-0.003319674265704644
2404.95,-0.002732533124824927
2400.95,-0.0018978918634705438
2396.96,-0.0015895863720819838
2392.96,-0.002458904715337525
2388.96,-0.003951898336419462
2384.96,-0.004446871487372627
2380.97,-0.0027501838817961073
2376.97,0.0006723435175828713
2372.97,0.003488917372745818
2368.97,0.0035755149930180464
2364.98,0.001789469311212195
2360.98,0.0011110667326489133
2356.98,0.002393670818847967
2352.98,0.003642571431636663
2348.99,0.0035380639739272094
2344.99,0.0028867273154548757
2340.99,0.003456198904270387
2336.99,0.005877694370798066
2333.0,0.00875349107391518
2329.0,0.010361093971804312
2325.0,0.009904867307926318
2321.0,0.0074626716281368955
2317.0,0.004189246760334303
2313.01,0.0022532805537038006
2309.01,0.0033984924174711127
2305.01,0.007515431463416696
2301.01,0.013399832609975168
2297.02,0.019491480389550436
2293.02,0.023732522630550666
2289.02,0.025589293734313203
2285.02,0.02736239307218884
2281.03,0.03296586838798456
2277.03,0.04445421770210681
2273.03,0.05747010140426761
2269.03,0.0652516415315892
2265.04,0.06156178436124287
2261.04,0.045443306164092055
2257.04,0.024260876823635768
2253.04,0.0056710380177330336
2249.05,0.0012671278591414523
2245.05,0.012051836447733198
2241.05,0.025165685079378435
2237.05,0.035148956534393844
2233.05,0.04193737179253802
2229.06,0.04472657148709933
2225.06,0.038960576768958304
2221.06,0.02535949821693765
2217.06,0.011423959628525972
2213.07,0.0031226892372267744
2209.07,0.004732066886602104
2205.07,0.01153928158666806
2201.07,0.018155222513797142
2197.08,0.0198751592534101
2193.08,0.017605258718995247
2189.08,0.006982212377442431
2185.08,-0.013574148169182778
2181.09,-0.032602470896038266
2177.09,-0.03814682097932075
2173.09,-0.019497956415378784
2169.09,0.00624151681688816
2165.1,0.01409328931071296
2161.1,0.018617726617947
2157.1,0.03936815539829347
2153.1,0.06199604702425988
2149.11,0.05982410254403051
2145.11,0.039540804433473284
2141.11,0.022119492629704165
2137.11,0.012172652763778206
2133.11,0.004796382950531515
2129.12,0.0011378147719926191
2125.12,0.0017300397705810391
2121.12,0.005016224676939995
2117.12,0.0030867720850349823
2113.13,-0.010698429207742504
2109.13,-0.0321260320421063
2105.13,-0.046298191553076455
2101.13,-0.042807818614109594
2097.14,-0.03254355261534524
2093.14,-0.02765943364520756
2089.14,-0.025708177267359522
2085.14,-0.019283012678305043
2081.15,-0.008513445095306903
2077.15,0.0056179834755306565
2073.15,0.02493810476132312
2069.15,0.03858372208537564
2065.16,0.03336651765072676
2061.16,0.0158634631212331
2057.16,0.007539912243779471
2053.16,0.009217482437663356
2049.16,0.015299857494254464
2045.17,0.041705607105953696
2041.17,0.07982718123048486
2037.17,0.08248399942129557
2033.17,0.06597776645925228
2029.18,0.029975527157543636
2025.18,-0.014230484170917143
2021.18,-0.016986836526356085
2017.18,-0.009810788036876796
2013.19,-0.02299977566064832
2009.19,-0.01247908982093469
2005.19,0.014779123840139335
2001.19,0.03751212539924083
1997.2,0.054499725867845905
1993.2,0.04751693812912944
1989.2,0.01431918156161063
1985.2,-0.03273419962935848
1981.21,-0.07538343763412417
1977.21,-0.05576523615267853
1973.21,-0.02460069030755952
1969.21,-0.006658062625307467
1965.21,0.0025611906415331127
1961.22,0.008801371291678201
1957.22,0.0032190942136669717
1953.22,-0.016282921709348287
1949.22,-0.044126422909348685
1945.23,-0.05130132618907992
1941.23,-0.03423361339319929
1937.23,-0.02574893605384974
1933.23,-0.03623311189151756
1929.24,-0.04308024162076064
1925.24,-0.029079784685675937
1921.24,-0.01106416079787458
1917.24,-0.0034171589393229493
1913.25,-0.0025242495096816616
1909.25,-0.0029485306065761404
1905.25,-0.006925256398594561
1901.25,-0.015038912240142081
1897.26,-0.019403430807851875
1893.26,-0.014992080827095564
1889.26,-0.008467503033371382
1885.26,-0.00490630387048363
1881.26,-0.003172182850778001
1877.27,-0.0034077317548019386
1873.27,-0.008565322208180763
1869.27,-0.016406541995551582
1865.27,-0.018545645407193074
1861.28,-0.013519221848456265
1857.28,-0.010500987918416136
1853.28,-0.013779018546424623
1849.28,-0.01773918068698086
1845.29,-0.01676763633580871
1841.29,-0.015204058241514534
1837.29,-0.017560493881957902
1833.29,-0.02037408737504492
1829.3,-0.018764047913839604
1825.3,-0.0150628678093372
1821.3,-0.01353857543818135
1817.3,-0.013610119832173388
1813.31,-0.01349766225192566
1809.31,-0.01446737308545988
1805.31,-0.017874034053842188
1801.31,-0.02174108130668921
1797.32,-0.022748880528603025
1793.32,-0.02085865509977393
1789.32,-0.01838630126854695
1785.32,-0.016791028012860545
1781.32,-0.017199640654037743
1777.33,-0.02053311090592489
1773.33,-0.02481912082781281
1769.33,-0.025392452478084634
1765.33,-0.022114295930701033
1761.34,-0.020769286155343278
1757.34,-0.024539208895533498
1753.34,-0.029958414403854185
1749.34,-0.03200019743842417
1745.35,-0.032321424975656446
1741.35,-0.034717007544877644
1737.35,-0.03662792107446757
1733.35,-0.033530075921429515
1729.36,-0.029304882932471823
1725.36,-0.029920384264560958
1721.36,-0.034378670954908694
1717.36,-0.036521048128437594
1713.37,-0.03544344248019639
1709.37,-0.03682378330247549
1705.37,-0.0418366995694066
1701.37,-0.04374485426011131
1697.37,-0.03853250830574081
1693.38,-0.032349488335303295
1689.38,-0.029326325070056856
1685.38,-0.026897366288897537
1681.38,-0.022560813983144346
1677.39,-0.017808819378828195
1673.39,-0.013649941663517524
1669.39,-0.008966388560649768
1665.39,-0.004876554543697301
1661.4,-0.0050671048967445426
1657.4,-0.011042338763884885
1653.4,-0.01817872133678957
1649.4,-0.019296371133365346
1645.41,-0.01590779790127087
1641.41,-0.013763320476363257
1637.41,-0.014111377095480597
1633.41,-0.015217379596135838
1629.42,-0.016389643912070342
1625.42,-0.017982277304953803
1621.42,-0.0189888353641727
1617.42,-0.017695916727708663
1613.42,-0.014365770649677565
1609.43,-0.01070460802275252
1605.43,-0.007848078003887357
1601.43,-0.0061924180448172834
1597.43,-0.005473574609495293
1593.44,-0.004816812275696577
1589.44,-0.004090472705357076
1585.44,-0.00479296488733081
1581.44,-0.007974250506479593
1577.45,-0.011828310224826565
1573.45,-0.013773890222213245
1569.45,-0.015102768023141304
1565.45,-0.018832224394154017
1561.46,-0.023154959166964
1557.46,-0.021950338966477217
1553.46,-0.016974870586918517
1549.46,-0.01645823475178801
1545.47,-0.022175189116105824
1541.47,-0.02652369440786958
1537.47,-0.02300024895346673
1533.47,-0.01883229958606613
1529.47,-0.02119652781417168
1525.48,-0.028026560460720662
1521.48,-0.032630428295498115
1517.48,-0.034090652019441454
1513.48,-0.036066765176792366
1509.49,-0.0364864821893521
1505.49,-0.030829900712616466
1501.49,-0.0224156481553075
1497.49,-0.016831236439649316
1493.5,-0.013334851428769695
1489.5,-0.008422319493404232
1485.5,-0.003089406007472685
1481.5,-0.0009800040833935209
1477.51,-0.00197341840901976
1473.51,-0.0020361888949062545
1469.51,6.985942212278662e-05
1465.51,0.00018055308769529543
1461.52,-0.003396542124997265
1457.52,-0.005270868260809941
1453.52,-0.0005537024704480101
1449.52,0.005977260354957846
1445.53,0.008081766239890369
1441.53,0.005382900037497605
1437.53,0.0020162674392117386
1433.53,0.0008314442781519743
1429.53,0.00024515457423317233
1425.54,-0.0013794658788247385
1421.54,-0.0025679902780175734
1417.54,-0.001401118042602699
1413.54,0.0008590177856394737
1409.55,0.0014725399241036635
1405.55,-0.00046498770507846787
1401.55,-0.002983398802880989
1397.55,-0.0027084996653165203
1393.56,0.001583301889075378
1389.56,0.007035627336223142
1385.56,0.009871553471809007
1381.56,0.009359092513573572
1377.57,0.007632374254212371
1373.57,0.006601542976261539
1369.57,0.006024251186711706
1365.57,0.005205368414445025
1361.58,0.004949672606729613
1357.58,0.00600692897682149
1353.58,0.0068941525237733135
1349.58,0.005504198353374446
1345.58,0.0021659136167372604
1341.59,-0.00017542215216562185
1337.59,0.0005322805793469033
1333.59,0.0028529803541551373
1329.59,0.004122155777099502
1325.6,0.0035596527459414544
1321.6,0.002387417196990489
1317.6,0.002017261987314105
1313.6,0.0028371983080468163
1309.61,0.004392913124044596
1305.61,0.006054568257426021
1301.61,0.007428890787998684
1297.61,0.008456461532059655
1293.62,0.009293643307429784
1289.62,0.010115750370096363
1285.62,0.011072319975886244
1281.62,0.01230662955553067
1277.63,0.013711851698901857
1273.63,0.014714210599699046
1269.63,0.014684369633732132
1265.63,0.013718572051519336
1261.63,0.012726620930427049
1257.64,0.012442768787867778
1253.64,0.012887264344589366
1249.64,0.014132312380778493
1245.64,0.01680319728313294
1241.65,0.021221591620476085
1237.65,0.02641665696797492
1233.65,0.030754783137771302
1229.65,0.03379276645293419
1225.66,0.036769292285753874
1221.66,0.04057495642577502
1217.66,0.04287635969396275
1213.66,0.04102087613887295
1209.67,0.035948820196317344
1205.67,0.030512578484333308
1201.67,0.026322660810051385
1197.67,0.02270151100312108
1193.68,0.01891092655899261
1189.68,0.015362103653000142
1185.68,0.013122642999311464
1181.68,0.012746173329071575
1177.68,0.01389207377485456
1173.69,0.01586882691901159
1169.69,0.018119164176138618
1165.69,0.020193959631403108
1161.69,0.021697332228043542
1157.7,0.022387368530850958
1153.7,0.0221488557634067
1149.7,0.02086215007332104
1145.7,0.01843377461991038
1141.71,0.014989920058592468
1137.71,0.011063365777880026
1133.71,0.007631309480844117
1129.71,0.005766980025223377
1125.72,0.005954195883194544
1121.72,0.0076568267079963614
1117.72,0.009681514176925997
1113.72,0.01116054343195753
1109.73,0.012193419904466832
1105.73,0.013550013206932856
1101.73,0.01592926451966894
1097.73,0.01933681687048074
1093.74,0.022722136161704674
1089.74,0.024298906542285986
1085.74,0.023107740426123884
1081.74,0.020541489835865363
1077.74,0.0192919037837831
1073.75,0.020467425850315194
1069.75,0.022418042077030704
1065.75,0.022834880553764883
1061.75,0.02143017282665278
1057.76,0.019662029118413023
1053.76,0.01859790454586412
1049.76,0.018116641709476668
1045.76,0.017787225993449663
1041.77,0.017474411957906118
1037.77,0.017065645395263836
1033.77,0.01644114011621524
1029.77,0.015812303972918544
1025.78,0.015429223519708997
1021.78,0.014998303234815633
1017.78,0.014142535859726881
1013.78,0.013316175639143574
1009.79,0.013283854580179583
1005.79,0.013691395650473417
1001.79,0.01321460360342715
997.79,0.01137599314292435
993.79,0.009283771974888728
989.8,0.00817317301102227
985.8,0.007945348136358048
981.8,0.0076905048378723435
977.8,0.006995326486229749
973.81,0.0060757632735858064
969.81,0.005053146627135402
965.81,0.003636996017831672
961.81,0.0012631709600475407
957.82,-0.0026325209192252473
953.82,-0.007786169032008548
949.82,-0.012193169801827067
945.82,-0.012999351756161095
941.83,-0.009334598553147132
937.83,-0.0035523372448338156
933.83,0.00119551552054082
929.83,0.003717801916468852
925.84,0.004585093327355225
921.84,0.004331778133387892
917.84,0.0031817369862248736
913.84,0.0019182558084508312
909.84,0.0015703144261381263
905.85,0.0022709616786116913
901.85,0.0034321223216151955
897.85,0.004742068738720306
893.85,0.005892687096407938
889.86,0.006009470757525729
885.86,0.004543951299845391
881.86,0.002450569442613711
877.86,0.0012771219153192605
873.87,0.0012452135243075056
869.87,0.0014380920181894501
865.87,0.001471044045975825
861.87,0.0017565101411310714
857.88,0.0025142384385527274
853.88,0.003989896137267548
849.88,0.00667954334771562
845.88,0.009832344371649968
841.89,0.01093938353586649
837.89,0.008853247941225263
833.89,0.005784667389759121
829.89,0.004149771793953212
825.89,0.0031502360255770134
821.9,0.0009220103870410667
817.9,-0.0008601332220638108
813.9,0.0015119869712622303
809.9,0.006977540083727446
805.91,0.010252088135122267
801.91,0.008555867505515263
797.91,0.004579011474147715
793.91,0.0025879754999674764
789.92,0.0042522971742735005
785.92,0.008428528967271753
781.92,0.010445889937101882
777.92,0.008662442425865335
773.93,-0.0037844786967792254
769.93,0.002797499766229228
765.93,0.001814373099688682
761.93,-0.03380941277093941
757.94,-0.0013506914563157224
753.94,0.22408295341498197
749.94,0.18702822670077557
745.94,0.051018313361859136
741.95,-0.018263901020320716
737.95,-0.05418747016508774
733.95,-0.13481517137223742
729.95,-0.18898346669488153
725.95,-0.25810052978786346
721.96,-0.11988796699109855
717.96,-0.035117484876031224
713.96,0.0025950285000381212
709.96,0.038909856491048
705.97,0.04457662081948899
701.97,-0.10805015535911222
697.97,-0.15895437411565777
693.97,-0.31393741119135676
689.98,-0.23418367154219447
685.98,-0.5613165179354337
681.98,-0.326987566791217
677.98,-0.1446696619616185
673.99,0.156114058437392
669.99,0.15790131533653878
665.99,0.08158182374705364
661.99,0.22355687179308636
658.0,0.2275907532124246
654.0,0.25880414938863694
650.0,0.05167800643696967
