wavenumber,transmittance
4000.0,-0.00843879496985147
3996.0,-0.009158599703932895
3992.0,-0.009806570462015857
3988.01,-0.011421448992459476
3984.01,-0.012632418097027562
3980.01,-0.011755201427676876
3976.01,-0.009685669421447414
3972.02,-0.008177003656407904
3968.02,-0.006985393856522413
3964.02,-0.005125590969180072
3960.02,-0.003561032226005436
3956.03,-0.00402130042305967
3952.03,-0.006041249886522899
3948.03,-0.007498478213034093
3944.03,-0.007958351121749248
3940.04,-0.008650210614503662
3936.04,-0.009966472115915429
3932.04,-0.011547300983774775
3928.04,-0.013744189814491636
3924.05,-0.0164735310963371
3920.05,-0.017728938674144757
3916.05,-0.016725445279017266
3912.05,-0.01685127280602491
3908.05,-0.02134479687791556
3904.06,-0.027509868878953955
3900.06,-0.028475764922493232
3896.06,-0.023899432883827176
3892.06,-0.020753776106239394
3888.07,-0.022557656727728324
3884.07,-0.025919353825062882
3880.07,-0.02718603679755199
3876.07,-0.027712752327376675
3872.08,-0.029374072618565842
3868.08,-0.030225391690360186
3864.08,-0.028235760202559725
3860.08,-0.025328845845254036
3856.09,-0.024355053585109178
3852.09,-0.02562278008169118
3848.09,-0.028029694105655794
3844.09,-0.031194210778926312
3840.1,-0.03390488559298309
3836.1,-0.033585612899203816
3832.1,-0.03111232157603786
3828.1,-0.030884395545681207
3824.11,-0.03313619574432537
3820.11,-0.0325195732073633
3816.11,-0.02637438210482571
3812.11,-0.020689535853976496
3808.11,-0.02016825631177471
3804.12,-0.021265181569498935
3800.12,-0.0177234472847103
3796.12,-0.01118957988017966
3792.12,-0.008394594718631309
3788.13,-0.010668660784906
3784.13,-0.014233525254317087
3780.13,-0.01590572762398842
3776.13,-0.01644688296526165
3772.14,-0.01769452029976645
3768.14,-0.019655314845795375
3764.14,-0.02207527256570339
3760.14,-0.02615512347857492
3756.15,-0.0329807089326007
3752.15,-0.04156226307691496
3748.15,-0.04898672838790539
3744.15,-0.053106834702006826
3740.16,-0.053704341380983824
3736.16,-0.050798963196689174
3732.16,-0.045227459182660704
3728.16,-0.039259624990908494
3724.16,-0.034887311898084396
3720.17,-0.032972169332885444
3716.17,-0.03322181101386232
3712.17,-0.03311071350442219
3708.17,-0.028895424799802092
3704.18,-0.02133203673919559
3700.18,-0.016610456063992224
3696.18,-0.018998652778265242
3692.18,-0.025163094487091083
3688.19,-0.027087718050170535
3684.19,-0.023391081030629056
3680.19,-0.02073705910091541
3676.19,-0.022121323560489403
3672.2,-0.02158036439274135
3668.2,-0.015167448152200962
3664.2,-0.0103420522460919
3660.2,-0.015061580842196285
3656.21,-0.029172151371844434
3652.21,-0.04242019495630891
3648.21,-0.04170901546512807
3644.21,-0.030438750374925896
3640.21,-0.021974160411017483
3636.22,-0.021587190157109908
3632.22,-0.026544214216163806
3628.22,-0.03128446012134882
3624.22,-0.03283012027835446
3620.23,-0.0324897531969005
3616.23,-0.03149153788548387
3612.23,-0.028603754121195528
3608.23,-0.02325988255184362
3604.24,-0.01843357618115464
3600.24,-0.017822061496398686
3596.24,-0.0219653643394634
3592.24,-0.027296462055319236
3588.25,-0.02851774629567444
3584.25,-0.024156543658848163
3580.25,-0.018391749888104762
3576.25,-0.01602706822797489
3572.26,-0.018095721915917944
3568.26,-0.02160497742546485
3564.26,-0.022657445126554744
3560.26,-0.02102531732895146
3556.26,-0.01941059194319121
3552.27,-0.018844809070216205
3548.27,-0.01781113322228182
3544.27,-0.015342754676791005
3540.27,-0.01316128513836637
3536.28,-0.01320046542376096
3532.28,-0.014596572615763782
3528.28,-0.014423726894664854
3524.28,-0.010737026335417121
3520.29,-0.005065467550597979
3516.29,-0.0014485679660702702
3512.29,-0.0026545176738696098
3508.29,-0.007181168181615092
3504.3,-0.009883076180886692
3500.3,-0.007149834756767907
3496.3,-0.0015111229759090742
3492.3,0.0011464731169019936
3488.31,-0.0016789010898601835
3484.31,-0.007024951513336544
3480.31,-0.010447795138394986
3476.31,-0.010553553808114985
3472.32,-0.009038313049691228
3468.32,-0.007907782190739544
3464.32,-0.008305780725590822
3460.32,-0.010447596017556484
3456.32,-0.013263081662876914
3452.33,-0.015069208092394929
3448.33,-0.01526864799710465
3444.33,-0.014614052368904238
3440.33,-0.013201776801102988
3436.34,-0.01029979818925541
3432.34,-0.006666540992751832
3428.34,-0.004867610403889898
3424.34,-0.006122763040908562
3420.35,-0.008314585558197203
3416.35,-0.008552058285112315
3412.35,-0.006561048426483324
3408.35,-0.004209722343981627
3404.36,-0.003011070479836864
3400.36,-0.0035592092257186302
3396.36,-0.006116233305777003
3392.36,-0.00992297853317273
3388.37,-0.012714908096404062
3384.37,-0.0127687061731547
3380.37,-0.011054300117354875
3376.37,-0.009914599130739724
3372.37,-0.010367550050786108
3368.38,-0.011945694531251789
3364.38,-0.01395709378399741
3360.38,-0.015269051621687383
3356.38,-0.014201032489817996
3352.39,-0.010564728256304284
3348.39,-0.007028946806725216
3344.39,-0.006351675196995825
3340.39,-0.008094342972377213
3336.4,-0.009706148835520335
3332.4,-0.01005550111018799
3328.4,-0.01022587693045549
3324.4,-0.011220433762324072
3320.41,-0.01294107140809261
3316.41,-0.015126440603147662
3312.41,-0.017255895848181005
3308.41,-0.0176627740507052
3304.42,-0.01514234477764469
3300.42,-0.01165860258044945
3296.42,-0.01080936799322575
3292.42,-0.013290483303755365
3288.42,-0.016102689803021843
3284.43,-0.016911948581911106
3280.43,-0.017006649024292067
3276.43,-0.018347018613744832
3272.43,-0.0202517903284622
3268.44,-0.02095300513793178
3264.44,-0.020613633875573762
3260.44,-0.020541975585597644
3256.44,-0.02054000835675001
3252.45,-0.019372494591143437
3248.45,-0.01738292613761809
3244.45,-0.016384006793996608
3240.45,-0.01695308305696095
3236.46,-0.017561534057556415
3232.46,-0.01672602209838877
3228.46,-0.014867146985454091
3224.46,-0.013547462136102237
3220.47,-0.013598199786611545
3216.47,-0.014518238997895675
3212.47,-0.015420218587355119
3208.47,-0.016128595703724925
3204.47,-0.017024776980553505
3200.48,-0.017897787374370082
3196.48,-0.017619917667459267
3192.48,-0.015577406697800285
3188.48,-0.01306031546459378
3184.49,-0.012124064155883683
3180.49,-0.013086867253782327
3176.49,-0.01425355219109067
3172.49,-0.014270467482956318
3168.5,-0.01364301097358003
3164.5,-0.013344974783414076
3160.5,-0.013187899380355392
3156.5,-0.012541677128648135
3152.51,-0.011833939438898211
3148.51,-0.012035438308152421
3144.51,-0.013144855215889716
3140.51,-0.014228438988215216
3136.52,-0.014874305870503694
3132.52,-0.015634669780383345
3128.52,-0.016792293114076495
3124.52,-0.017555507363279352
3120.53,-0.01700263456224847
3116.53,-0.015475764530176907
3112.53,-0.01443324272452081
3108.53,-0.014832692782442456
3104.53,-0.015961366230062415
3100.54,-0.01624397469653329
3096.54,-0.015130746002671266
3092.54,-0.013609418704003545
3088.54,-0.012634395716159824
3084.55,-0.01191357843267728
3080.55,-0.010732655344551995
3076.55,-0.009394656516862467
3072.55,-0.008854907553543716
3068.56,-0.009159861631200437
3064.56,-0.009370070617027368
3060.56,-0.009105794146498095
3056.56,-0.00916450291687999
3052.57,-0.010332047495297814
3048.57,-0.012443360651852614
3044.57,-0.014870952605552035
3040.57,-0.017090039084004766
3036.58,-0.018292606198218403
3032.58,-0.0173523581116626
3028.58,-0.014150594314856088
3024.58,-0.010510792031376684
3020.58,-0.008839658537613038
3016.59,-0.009821967638293641
3012.59,-0.012093476300944692
3008.59,-0.013827093705054957
3004.59,-0.013900637754698738
3000.6,-0.01228859859192152
2996.6,-0.009928752742724513
2992.6,-0.007854413334949004
2988.6,-0.0062449690042727345
2984.61,-0.004689900286433513
2980.61,-0.0033828007627310502
2976.61,-0.0033513062033687854
2972.61,-0.005201008540505675
2968.62,-0.00814650507347493
2964.62,-0.010746777954482978
2960.62,-0.012259106724610377
2956.62,-0.01278611680985186
2952.63,-0.012496659462512195
2948.63,-0.011457296949955374
2944.63,-0.00992819336681082
2940.63,-0.008226738696791587
2936.63,-0.006561904775370872
2932.64,-0.005348137506307651
2928.64,-0.005120667832257706
2924.64,-0.005768951781016662
2920.64,-0.006265450254994396
2916.65,-0.005799834284421653
2912.65,-0.004863527264842946
2908.65,-0.004403142273140353
2904.65,-0.004642124472055403
2900.66,-0.005217120642575575
2896.66,-0.005733758739881908
2892.66,-0.0059247617615814825
2888.66,-0.0056404529182871
2884.67,-0.005055881626228543
2880.67,-0.004704947138854099
2876.67,-0.004953395422148026
2872.67,-0.005637085230889597
2868.68,-0.006377858575874539
2864.68,-0.006937624123118297
2860.68,-0.007012833352809014
2856.68,-0.0061623376282284245
2852.68,-0.004432696249452679
2848.69,-0.002707674245300277
2844.69,-0.001840953126781791
2840.69,-0.0018073195528352896
2836.69,-0.0022212057248674182
2832.7,-0.002931651714021089
2828.7,-0.003660552983351207
2824.7,-0.003815573678827934
2820.7,-0.0033109585763606043
2816.71,-0.0029540552983376243
2812.71,-0.0033377105923879415
2808.71,-0.003854188223033749
2804.71,-0.0036962021038638923
2800.72,-0.00335163138971282
2796.72,-0.00394692190238085
2792.72,-0.005426081911157312
2788.72,-0.006551843372770042
2784.73,-0.00676458715504104
2780.73,-0.0068221638558372604
2776.73,-0.007243894205885426
2772.73,-0.00732991335083731
2768.74,-0.006422537818810365
2764.74,-0.005232556485292346
2760.74,-0.005044423699258621
2756.74,-0.0060726872736222804
2752.74,-0.007318182658839764
2748.75,-0.007876842956902098
2744.75,-0.007755461012179135
2740.75,-0.007491829847134282
2736.75,-0.007476100636394785
2732.76,-0.007726568681933947
2728.76,-0.008037068456059143
2724.76,-0.008220183569645783
2720.76,-0.008281522768453639
2716.77,-0.008307356491346257
2712.77,-0.008232049399163846
2708.77,-0.007928063045050534
2704.77,-0.007557058573941915
2700.78,-0.007529807332564714
2696.78,-0.007946122572574573
2692.78,-0.008384201324107108
2688.78,-0.008476534454201863
2684.79,-0.008441408989423698
2680.79,-0.008696588243864321
2676.79,-0.009114688324696625
2672.79,-0.009080480503645492
2668.79,-0.008292649594286394
2664.8,-0.007201236372173748
2660.8,-0.006530453283918783
2656.8,-0.006545654138872901
2652.8,-0.006889574326693248
2648.81,-0.0070210631806860305
2644.81,-0.00679311922028595
2640.81,-0.006570075072008338
2636.81,-0.0067812155802497685
2632.82,-0.007372756212531271
2628.82,-0.007693354069545056
2624.82,-0.006993520829532737
2620.82,-0.005140623091565039
2616.83,-0.0028654826118602256
2612.83,-0.0013256422690020205
2608.83,-0.001240902763593706
2604.83,-0.002697062913008503
2600.84,-0.005790411031292498
2596.84,-0.010501077458688543
2592.84,-0.015371559351146358
2588.84,-0.017428504886059074
2584.84,-0.01508901913505448
2580.85,-0.010939526491431043
2576.85,-0.009034233570777275
2572.85,-0.009986912355979977
2568.85,-0.01073069168545723
2564.86,-0.009156877181088359
2560.86,-0.00729365800003896
2556.86,-0.007798993984483859
2552.86,-0.010081282186048233
2548.87,-0.011530841282682244
2544.87,-0.010629893727044797
2540.87,-0.0077956396954813306
2536.87,-0.003890881542191335
2532.88,-0.0003614269343375186
2528.88,0.0004260994726048642
2524.88,-0.0031589957577605535
2520.88,-0.009678163290588779
2516.89,-0.015444846786282036
2512.89,-0.018315799259168215
2508.89,-0.01865266999502932
2504.89,-0.016882608474005006
2500.89,-0.013491576912821787
2496.9,-0.010564656477950008
2492.9,-0.01042434815763404
2488.9,-0.01301452996959111
2484.9,-0.015878335042943885
2480.91,-0.017030455949763594
2476.91,-0.01615146886043447
2472.91,-0.013228360383079762
2468.91,-0.008439475642090013
2464.92,-0.003200053376335786
2460.92,0.00041137352748359807
2456.92,0.0012494503940574542
2452.92,0.00014515302817053738
2448.93,-0.00139747527044266
2444.93,-0.003007292084427144
2440.93,-0.004798750509739639
2436.93,-0.006529705027225315
2432.94,-0.007756408040779947
2428.94,-0.008276203704871754
2424.94,-0.008085287181990638
2420.94,-0.007398609527596474
2416.95,-0.0066738520369405635
2412.95,-0.006433269320810123
2408.95,-0.006626352129698089
2404.95,-0.006533551423064953
2400.95,-0.005883831748064675
2396.96,-0.005347023970001478
2392.96,-0.005752160985641444
2388.96,-0.006837382407507986
2384.96,-0.007167758093893601
2380.97,-0.0055990075571175964
2376.97,-0.0025289348192661758
2372.97,-8.921551335532019e-05
2368.97,-0.00014497714111541288
2364.98,-0.0018047096520845182
2360.98,-0.002396900271843845
2356.98,-0.0012828564975938405
2352.98,-0.00027988283731897323
2348.99,-0.00043210527370087176
2344.99,-0.0007691836679597787
2340.99,0.0004665146781154361
2336.99,0.0036556738982887436
2333.0,0.007123193761986154
2329.0,0.00910729493740743
2325.0,0.008892974024697268
2321.0,0.006601234921794198
2317.0,0.0034672550476896468
2313.01,0.0019142396208027762
2309.01,0.003879615229219275
2305.01,0.008978033206463069
2301.01,0.0155583109801447
2297.02,0.02211440773615229
2293.02,0.027262006088056807
2289.02,0.030896499325640467
2285.02,0.034547268200660106
2281.03,0.04095865321486405
2277.03,0.0525446014222526
2273.03,0.06658299187413586
2269.03,0.07673569201733896
2265.04,0.07540393242383321
2261.04,0.06060444788309233
2257.04,0.03995750293323988
2253.04,0.02119440341319921
2249.05,0.01601683888830734
2245.05,0.026163228323508873
2241.05,0.0382509427157501
2237.05,0.046877091909783154
2233.05,0.052147478270770035
2229.06,0.053940180159717924
2225.06,0.04684166767953244
2221.06,0.030423503469163546
2217.06,0.013998904218919413
2213.07,0.00761313208556268
2209.07,0.015577923089746221
2205.07,0.02878137664663318
2201.07,0.037648514091929
2197.08,0.03874549972828888
2193.08,0.03648778462297176
2189.08,0.028172158773375876
2185.08,0.0071543440328807415
2181.09,-0.017339116572355588
2177.09,-0.026217052346706272
2173.09,-0.006967583328594184
2169.09,0.018971748924880575
2165.1,0.027625020635615304
2161.1,0.0310693557320533
2157.1,0.049958903612920685
2153.1,0.06859892945610299
2149.11,0.06071723379910718
2145.11,0.039877161376090264
2141.11,0.025918785132153316
2137.11,0.01888416601863576
2133.11,0.010944431963592854
2129.12,0.006554187213059143
2125.12,0.006996699328727792
2121.12,0.007905530526658242
2117.12,0.0028123412146176087
2113.13,-0.011538210391648736
2109.13,-0.03049691034366294
2105.13,-0.041932486291082254
2101.13,-0.037558249907919325
2097.14,-0.02739485242465092
2093.14,-0.02240742341247157
2089.14,-0.021796092542267824
2085.14,-0.017593547065234468
2081.15,-0.006425854947289245
2077.15,0.011009386419903379
2073.15,0.031888215581856484
2069.15,0.04215844178017138
2065.16,0.03359226018829628
2061.16,0.017318356314985774
2057.16,0.012451141845961508
2053.16,0.015507949075828972
2049.16,0.0190281259673706
2045.17,0.03995063547210302
2041.17,0.07005743032361887
2037.17,0.07051845036523179
2033.17,0.05580113788251176
2029.18,0.02350326099726363
2025.18,-0.010156554353859985
2021.18,0.0010304898688147622
2017.18,0.02001875826249755
2013.19,0.01883868178908093
2009.19,0.027676740579449178
2005.19,0.04147150040365974
2001.19,0.05200463372031897
1997.2,0.057865351193441376
1993.2,0.04238019904721671
1989.2,0.012332260037166257
1985.2,-0.029250394956934773
1981.21,-0.06731431006950025
1977.21,-0.050628160749324885
1973.21,-0.02515265511740926
1969.21,-0.007117613274274086
1965.21,0.005094385344496813
1961.22,0.013126958052051274
1957.22,0.008958968018063443
1953.22,-0.012709349927939921
1949.22,-0.04202829442430885
1945.23,-0.05027547866664767
1941.23,-0.03397143586560864
1937.23,-0.025449212397831256
1933.23,-0.03451489725769006
1929.24,-0.04081611281207023
1925.24,-0.028408446468303646
1921.24,-0.011937776218395129
1917.24,-0.004786104936432616
1913.25,-0.0044299029512412215
1909.25,-0.006268816131083283
1905.25,-0.011664506562755562
1901.25,-0.02062966372094542
1897.26,-0.025342318198168852
1893.26,-0.02057334038933302
1889.26,-0.012812755013326693
1885.26,-0.007564693338301934
1881.26,-0.004657339518959202
1877.27,-0.0046182644027089916
1873.27,-0.009515698849244199
1869.27,-0.01662214350359397
1865.27,-0.018286738978121626
1861.28,-0.013667688477166524
1857.28,-0.011286726675392371
1853.28,-0.014702515900769535
1849.28,-0.018326725656581767
1845.29,-0.017039998186787773
1841.29,-0.015463581911563717
1837.29,-0.018170215487901757
1833.29,-0.021671515609786064
1829.3,-0.020638954175308324
1825.3,-0.016970914901353124
1821.3,-0.015210644763031855
1817.3,-0.015265763128242293
1813.31,-0.015290046279631844
1809.31,-0.01619519388055109
1805.31,-0.019380887608034705
1801.31,-0.023219222737639197
1797.32,-0.024428299071343487
1793.32,-0.02263552303650295
1789.32,-0.02013096859416123
1785.32,-0.018683327622573073
1781.32,-0.019408429319713837
1777.33,-0.022858957787503388
1773.33,-0.02700886202293489
1769.33,-0.027600657604181497
1765.33,-0.024627345946559017
1761.34,-0.02352073444691047
1757.34,-0.027333370007235257
1753.34,-0.03287082333566451
1749.34,-0.035209375425396684
1745.35,-0.03566874863007517
1741.35,-0.037884910522143704
1737.35,-0.039609856258602506
1733.35,-0.03657767998544847
1729.36,-0.03245230276744064
1725.36,-0.03306533850656289
1721.36,-0.0376170148697016
1717.36,-0.039989714596078654
1713.37,-0.0389534964374453
1709.37,-0.04022700918603897
1705.37,-0.04566339748535744
1701.37,-0.04905486593569873
1697.37,-0.04581184102786246
1693.38,-0.04150868148368426
1689.38,-0.040739461671539155
1685.38,-0.04118799169519179
1681.38,-0.039623877966056834
1677.39,-0.03708856331504129
1673.39,-0.035054462695478295
1669.39,-0.032517759712956645
1665.39,-0.030039616255374088
1661.4,-0.031171255665015548
1657.4,-0.03767996051995205
1653.4,-0.04463190694078742
1649.4,-0.04425541907492145
1645.41,-0.03851051464831252
1641.41,-0.03387021630779623
1637.41,-0.0317594250960985
1633.41,-0.03056389496662504
1629.42,-0.029872637162832175
1625.42,-0.03014304223348911
1621.42,-0.030191238322649354
1617.42,-0.028069439164308787
1613.42,-0.02401998983936044
1609.43,-0.019905058035611604
1605.43,-0.016907468412258965
1601.43,-0.015321815776583921
1597.43,-0.014895749531039518
1593.44,-0.014940302190406055
1589.44,-0.015317669218420545
1585.44,-0.017254811279981113
1581.44,-0.021775716091137154
1577.45,-0.02740300222776932
1573.45,-0.03156543597769682
1569.45,-0.03511414546612683
1565.45,-0.04098622852221632
1561.46,-0.04761375743678731
1557.46,-0.04843693537482513
1553.46,-0.044502861900816294
1549.46,-0.044358294018808614
1545.47,-0.0502909747919795
1541.47,-0.05454827594723299
1537.47,-0.050384330942995985
1533.47,-0.04544188112289696
1529.47,-0.04708850779367399
1525.48,-0.05282836827749775
1521.48,-0.0556831107156735
1517.48,-0.0551730749760084
1513.48,-0.055204842461482745
1509.49,-0.05346922857204065
1505.49,-0.045659974694125936
1501.49,-0.03569583784691522
1497.49,-0.029245352281128862
1493.5,-0.02536905509784306
1489.5,-0.020532538727916168
1485.5,-0.0157440046165862
1481.5,-0.014579176691148065
1477.51,-0.016767628411453725
1473.51,-0.01784054915511591
1469.51,-0.016101713266797782
1465.51,-0.015902915785733128
1461.52,-0.019443687156874473
1457.52,-0.021525480689993617
1453.52,-0.01702169244729108
1449.52,-0.010520378262084656
1445.53,-0.008312567017260013
1441.53,-0.010755419431441253
1437.53,-0.013588107460369203
1433.53,-0.014023960198478742
1429.53,-0.013914118282565967
1425.54,-0.015046829431472904
1421.54,-0.01579676658610863
1417.54,-0.013980848848297416
1413.54,-0.010944958895292345
1409.55,-0.009861620148469977
1405.55,-0.011952409739872997
1401.55,-0.015081854349077717
1397.55,-0.015354959676728643
1393.56,-0.011200416886849404
1389.56,-0.005505986198676115
1385.56,-0.0021065879753794023
1381.56,-0.0016770103839970005
1377.57,-0.002287889051115412
1373.57,-0.0026516190232826822
1369.57,-0.0034447334416643632
1365.57,-0.0050157912774723215
1361.58,-0.005760135104013141
1357.58,-0.004535706914254371
1353.58,-0.003155313519495724
1349.58,-0.004225224663144844
1345.58,-0.007565801141245578
1341.59,-0.010032852603885638
1337.59,-0.009329654733433595
1333.59,-0.0068400677671317175
1329.59,-0.0053177357473600285
1325.6,-0.005619244182650376
1321.6,-0.006532182143565778
1317.6,-0.006630311513221281
1313.6,-0.005560821848471356
1309.61,-0.00388045366713256
1305.61,-0.002317406257162733
1301.61,-0.0012833615697918944
1297.61,-0.0007700072429660774
1293.62,-0.000516106385049394
1289.62,-0.00026273140530668274
1285.62,0.00016496301490946316
1281.62,0.0008401423109083705
1277.63,0.001480419901063533
1273.63,0.001365846471872871
1269.63,-1.063786383832116e-05
1265.63,-0.0021191040446164877
1261.63,-0.003691637535098276
1257.64,-0.004125926615506648
1253.64,-0.0037988773491071173
1249.64,-0.0027386725720571076
1245.64,1.8557791010440083e-05
1241.65,0.005179802638006159
1237.65,0.01172030335014243
1233.65,0.017326018386948583
1229.65,0.020583902907177765
1225.66,0.022189361302586752
1221.66,0.023716187204328942
1217.66,0.025466966127315138
1213.66,0.025203621024076917
1209.67,0.02229697506487066
1205.67,0.019425201253077118
1201.67,0.017282914915117326
1197.67,0.015131864545551599
1193.68,0.012477281266262685
1189.68,0.00978758613338676
1185.68,0.0080321545578457
1181.68,0.007751308763520828
1177.68,0.008728574866730378
1173.69,0.01040600276175526
1169.69,0.012373870859538914
1165.69,0.014478552449363365
1161.69,0.016650218264841886
1157.7,0.01861943161343555
1153.7,0.019771854067402415
1149.7,0.019414544884499653
1145.7,0.017295414694048834
1141.71,0.013811842228046323
1137.71,0.00981506488877093
1133.71,0.006413010447736955
1129.71,0.004688785415163779
1125.72,0.005123150816033595
1121.72,0.0071599123115367765
1117.72,0.009548398627258117
1113.72,0.011355589848031714
1109.73,0.012622522714423993
1105.73,0.014072067466000489
1101.73,0.01642597658488203
1097.73,0.019798833448193727
1093.74,0.023188133538853715
1089.74,0.024665942804024208
1085.74,0.023090286254372226
1081.74,0.019892957913297246
1077.74,0.017985211010361518
1073.75,0.018611112525744218
1069.75,0.02009314839678942
1065.75,0.02008569612236331
1061.75,0.018343553254000416
1057.76,0.016320876244896133
1053.76,0.014936880230680837
1049.76,0.013914271194139677
1045.76,0.012873140004371996
1041.77,0.011937396984078035
1037.77,0.011212835930377283
1033.77,0.010524207565385534
1029.77,0.009828183262977012
1025.78,0.009239052048016089
1021.78,0.008634052518555379
1017.78,0.007939983798363168
1013.78,0.007700752633198492
1009.79,0.00844818191549139
1005.79,0.009501526477212148
1001.79,0.00940159321646519
997.79,0.007777671993784483
993.79,0.005900596671882179
989.8,0.00504825318155609
985.8,0.0050411200279843315
981.8,0.004876422125269144
977.8,0.004124096534760174
973.81,0.003064049548919756
969.81,0.001903554035452849
965.81,0.00039880753559520983
961.81,-0.002017906830652545
957.82,-0.005934143671291147
953.82,-0.011109610659212453
949.82,-0.015567034393608091
945.82,-0.016462648551777558
941.83,-0.012885653509725384
937.83,-0.007124224657174827
933.83,-0.002337473523367252
929.83,0.00016487795369013458
925.84,0.0008835055214319668
921.84,0.0005053024823001989
917.84,-0.000514076284118585
913.84,-0.0013646674995982239
909.84,-0.0012574644428670536
905.85,-0.00033432088315747503
901.85,0.0007918749594700274
897.85,0.0020102488365666554
893.85,0.0031676309073554697
889.86,0.0033421200958212403
885.86,0.0018799697593591073
881.86,-0.00018471592340990085
877.86,-0.0011006092604535639
873.87,-0.0006823280387741847
869.87,-0.00020732630558819437
865.87,-0.00029705236232753507
861.87,-0.0002970009657939296
857.88,0.0004274391873888006
853.88,0.0020574518289915023
849.88,0.004589588441205952
845.88,0.007109689306199728
841.89,0.007662504644114807
837.89,0.005625336441438939
833.89,0.0030808418317821683
829.89,0.0019857030104317303
825.89,0.001231100029848664
821.9,-0.0012180926649111232
817.9,-0.0038057914343361116
813.9,-0.00237386554437051
809.9,0.0032734523107315616
805.91,0.008369564213026592
801.91,0.00913805688564713
797.91,0.006326701153035574
793.91,0.0033807239262837185
789.92,0.003938458171717979
785.92,0.00814663599777593
781.92,0.012638265754043254
777.92,0.015878800071298604
773.93,0.0022369155231496407
769.93,-0.02911575801777133
765.93,-0.05386578020082822
761.93,-0.06629586600729898
757.94,-0.0808600056589992
753.94,0.04420895015370696
749.94,0.027776875233517684
745.94,-0.058183291969915896
741.95,-0.03769007831447824
737.95,-0.07311889165866681
733.95,-0.1728688825070881
729.95,-0.18105709130141123
725.95,-0.1973336867520612
721.96,-0.0585542219497166
717.96,0.046454590758666536
713.96,0.04522107254726676
709.96,0.019237984522646634
705.97,-0.015340583596914148
701.97,-0.14954954733354384
697.97,-0.1944482850926699
693.97,-0.3223530939169225
689.98,-0.2091227346583759
685.98,-0.5975253353975883
681.98,-0.3742225592727806
677.98,-0.26351480536186617
673.99,0.08930917882777815
669.99,0.1551387094934808
665.99,0.04751099113980621
661.99,0.2353393789075589
658.0,0.29003651554065957
654.0,0.23709661544756536
650.0,-0.04097830844452148
